Data from testscandark_MAYP1127851_00001.txt Node
Date: Thu Jan 05 16:23:55 EET 2017
User: Titta
Spectrometer: MAYP112785
Trigger mode: 0
Integration Time (sec): 2,000000E0
Scans to average: 1
Electric dark correction enabled: true
Nonlinearity correction enabled: false
Boxcar width: 0
XAxis mode: Wavelengths
Number of Pixels in Spectrum: 2068
>>>>>Begin Spectral Data<<<<<
198,408	853,5
198,88	-79,5
199,351	15,5
199,823	0,5
200,294	1707,5
200,766	1542,5
201,237	1580,5
201,709	1973,5
202,18	1622,5
202,652	1586,5
203,123	1615,5
203,595	1572,5
204,066	1565,5
204,538	1930,5
205,009	1434,5
205,48	1596,5
205,952	1509,5
206,423	1627,5
206,894	1534,5
207,366	1555,5
207,837	1501,5
208,308	1496,5
208,779	1507,5
209,251	1836,5
209,722	1805,5
210,193	1696,5
210,664	1560,5
211,135	1687,5
211,606	1793,5
212,078	1609,5
212,549	1676,5
213,02	1684,5
213,491	1664,5
213,962	1493,5
214,433	1699,5
214,904	1621,5
215,375	1542,5
215,846	1725,5
216,317	1493,5
216,788	1540,5
217,259	1670,5
217,73	1819,5
218,2	1527,5
218,671	1774,5
219,142	1506,5
219,613	1674,5
220,084	1691,5
220,554	1590,5
221,025	1843,5
221,496	1670,5
221,967	1743,5
222,437	1735,5
222,908	1646,5
223,379	1564,5
223,849	1786,5
224,32	1744,5
224,791	1556,5
225,261	1635,5
225,732	1530,5
226,203	1767,5
226,673	1699,5
227,144	1830,5
227,614	1665,5
228,085	1627,5
228,555	1760,5
229,026	2009,5
229,496	1543,5
229,966	1562,5
230,437	1749,5
230,907	1641,5
231,378	1779,5
231,848	1469,5
232,318	1556,5
232,789	1808,5
233,259	1445,5
233,729	1765,5
234,199	1631,5
234,67	1887,5
235,14	1738,5
235,61	1518,5
236,08	1620,5
236,55	1724,5
237,02	1607,5
237,491	1546,5
237,961	1662,5
238,431	1521,5
238,901	1822,5
239,371	1750,5
239,841	1720,5
240,311	1661,5
240,781	1917,5
241,251	1755,5
241,721	1665,5
242,191	1563,5
242,661	1601,5
243,131	1711,5
243,601	1708,5
244,07	1662,5
244,54	1745,5
245,01	1627,5
245,48	3473,5
245,95	1717,5
246,419	1601,5
246,889	1622,5
247,359	1711,5
247,829	1818,5
248,298	2125,5
248,768	1471,5
249,238	1745,5
249,707	1697,5
250,177	1769,5
250,646	1746,5
251,116	1682,5
251,586	1686,5
252,055	1520,5
252,525	1592,5
252,994	1566,5
253,464	1487,5
253,933	1684,5
254,403	1839,5
254,872	1797,5
255,341	1473,5
255,811	1797,5
256,28	1502,5
256,749	1740,5
257,219	1867,5
257,688	1600,5
258,157	1614,5
258,627	1725,5
259,096	1811,5
259,565	1749,5
260,034	1667,5
260,504	1671,5
260,973	2010,5
261,442	1808,5
261,911	1674,5
262,38	1637,5
262,849	1603,5
263,318	1582,5
263,787	1887,5
264,256	1682,5
264,725	1727,5
265,194	1712,5
265,663	1687,5
266,132	1548,5
266,601	1443,5
267,07	1789,5
267,539	1848,5
268,008	1637,5
268,477	1683,5
268,946	1635,5
269,415	1579,5
269,883	1752,5
270,352	1509,5
270,821	1827,5
271,29	1666,5
271,758	1720,5
272,227	1652,5
272,696	1631,5
273,164	1679,5
273,633	1614,5
274,102	1551,5
274,57	2100,5
275,039	1745,5
275,507	1613,5
275,976	1553,5
276,445	1737,5
276,913	1663,5
277,382	1518,5
277,85	1512,5
278,318	1760,5
278,787	1714,5
279,255	1712,5
279,724	1592,5
280,192	2277,5
280,66	1677,5
281,129	1801,5
281,597	1596,5
282,065	1519,5
282,534	1722,5
283,002	1741,5
283,47	1602,5
283,938	1693,5
284,406	1754,5
284,875	1569,5
285,343	1727,5
285,811	1680,5
286,279	1477,5
286,747	1632,5
287,215	1562,5
287,683	1746,5
288,151	1633,5
288,619	1677,5
289,087	1610,5
289,555	1850,5
290,023	1678,5
290,491	1705,5
290,959	1750,5
291,427	1541,5
291,895	1536,5
292,363	1701,5
292,83	1628,5
293,298	1695,5
293,766	1501,5
294,234	1667,5
294,702	1483,5
295,169	1546,5
295,637	1478,5
296,105	1735,5
296,572	1578,5
297,04	1651,5
297,508	2423,5
297,975	1503,5
298,443	1869,5
298,91	1669,5
299,378	1706,5
299,845	1796,5
300,313	1559,5
300,78	1535,5
301,248	1619,5
301,715	1879,5
302,183	1834,5
302,65	1518,5
303,117	1583,5
303,585	1829,5
304,052	1743,5
304,519	1740,5
304,987	1701,5
305,454	1622,5
305,921	1704,5
306,389	1776,5
306,856	1734,5
307,323	1597,5
307,79	1811,5
308,257	1761,5
308,724	1743,5
309,192	1613,5
309,659	1570,5
310,126	1584,5
310,593	1659,5
311,06	1654,5
311,527	1705,5
311,994	1822,5
312,461	1615,5
312,928	1726,5
313,395	1807,5
313,861	2004,5
314,328	1408,5
314,795	1816,5
315,262	1554,5
315,729	1831,5
316,196	1659,5
316,662	1866,5
317,129	1840,5
317,596	1795,5
318,063	1621,5
318,529	1597,5
318,996	1668,5
319,463	1574,5
319,929	1621,5
320,396	1650,5
320,862	1628,5
321,329	1658,5
321,796	1396,5
322,262	1589,5
322,729	1617,5
323,195	1529,5
323,662	1644,5
324,128	1700,5
324,594	1615,5
325,061	1837,5
325,527	1645,5
325,994	1617,5
326,46	1974,5
326,926	1774,5
327,392	1498,5
327,859	1685,5
328,325	1646,5
328,791	1647,5
329,257	1833,5
329,724	1757,5
330,19	1806,5
330,656	1821,5
331,122	1619,5
331,588	1580,5
332,054	1532,5
332,52	1633,5
332,986	1744,5
333,452	1525,5
333,918	1676,5
334,384	1689,5
334,85	1638,5
335,316	1960,5
335,782	1662,5
336,248	1754,5
336,714	1826,5
337,18	1524,5
337,645	1700,5
338,111	1605,5
338,577	1641,5
339,043	1624,5
339,508	1584,5
339,974	1775,5
340,44	1621,5
340,906	1776,5
341,371	1685,5
341,837	2067,5
342,302	1841,5
342,768	1814,5
343,234	1691,5
343,699	1641,5
344,165	1881,5
344,63	1597,5
345,096	1453,5
345,561	1798,5
346,026	1794,5
346,492	1612,5
346,957	1639,5
347,423	1524,5
347,888	1712,5
348,353	1684,5
348,819	1865,5
349,284	1649,5
349,749	1942,5
350,214	1497,5
350,679	1704,5
351,145	1802,5
351,61	1736,5
352,075	1736,5
352,54	1681,5
353,005	1680,5
353,47	1622,5
353,935	1595,5
354,4	1637,5
354,865	1510,5
355,33	1598,5
355,795	2108,5
356,26	1754,5
356,725	1875,5
357,19	1674,5
357,655	1642,5
358,12	1846,5
358,585	2227,5
359,049	1504,5
359,514	2380,5
359,979	1544,5
360,444	1550,5
360,908	1535,5
361,373	1790,5
361,838	1407,5
362,303	1690,5
362,767	1654,5
363,232	2424,5
363,696	2134,5
364,161	1827,5
364,625	1687,5
365,09	1581,5
365,554	1479,5
366,019	1551,5
366,483	1778,5
366,948	1733,5
367,412	1807,5
367,877	1425,5
368,341	1508,5
368,805	1654,5
369,27	1670,5
369,734	1535,5
370,198	1666,5
370,662	1751,5
371,127	1754,5
371,591	1674,5
372,055	1531,5
372,519	1732,5
372,983	1566,5
373,448	1499,5
373,912	1619,5
374,376	1677,5
374,84	1694,5
375,304	1582,5
375,768	1665,5
376,232	1778,5
376,696	1966,5
377,16	1710,5
377,624	1694,5
378,087	1698,5
378,551	1933,5
379,015	1480,5
379,479	1697,5
379,943	1763,5
380,407	1703,5
380,87	1518,5
381,334	1584,5
381,798	1647,5
382,261	1981,5
382,725	1774,5
383,189	1470,5
383,652	1566,5
384,116	2008,5
384,579	1644,5
385,043	1677,5
385,507	1569,5
385,97	1710,5
386,433	1714,5
386,897	1701,5
387,36	1776,5
387,824	1708,5
388,287	1709,5
388,751	1712,5
389,214	2936,5
389,677	1597,5
390,14	1449,5
390,604	1735,5
391,067	1585,5
391,53	1818,5
391,993	1764,5
392,457	1762,5
392,92	1784,5
393,383	1727,5
393,846	1752,5
394,309	1964,5
394,772	1698,5
395,235	1656,5
395,698	1746,5
396,161	1630,5
396,624	1556,5
397,087	1630,5
397,55	1368,5
398,013	1915,5
398,476	1550,5
398,939	1731,5
399,401	1681,5
399,864	1478,5
400,327	1776,5
400,79	1532,5
401,252	1462,5
401,715	1955,5
402,178	1618,5
402,641	1629,5
403,103	1862,5
403,566	1739,5
404,028	1578,5
404,491	1552,5
404,954	1855,5
405,416	1615,5
405,879	1722,5
406,341	1580,5
406,803	1627,5
407,266	1780,5
407,728	1613,5
408,191	1710,5
408,653	1633,5
409,115	2440,5
409,578	1846,5
410,04	1670,5
410,502	1990,5
410,964	1765,5
411,427	1698,5
411,889	1490,5
412,351	1538,5
412,813	1636,5
413,275	1482,5
413,737	1631,5
414,199	1545,5
414,661	2130,5
415,124	1490,5
415,586	1657,5
416,047	1690,5
416,509	1712,5
416,971	1467,5
417,433	1897,5
417,895	1656,5
418,357	1733,5
418,819	1490,5
419,281	1576,5
419,742	1804,5
420,204	1598,5
420,666	1918,5
421,128	1571,5
421,589	1803,5
422,051	1667,5
422,513	1712,5
422,974	1541,5
423,436	1781,5
423,897	1736,5
424,359	1555,5
424,82	1745,5
425,282	1579,5
425,743	1508,5
426,205	1676,5
426,666	1651,5
427,128	1577,5
427,589	1699,5
428,05	1595,5
428,512	1792,5
428,973	1731,5
429,434	1999,5
429,896	1815,5
430,357	1628,5
430,818	1526,5
431,279	1596,5
431,74	1743,5
432,201	1518,5
432,663	1732,5
433,124	1633,5
433,585	1558,5
434,046	1694,5
434,507	1447,5
434,968	1596,5
435,429	1618,5
435,89	1617,5
436,351	1632,5
436,811	2062,5
437,272	1509,5
437,733	1791,5
438,194	1697,5
438,655	1810,5
439,115	1654,5
439,576	1820,5
440,037	1623,5
440,498	1609,5
440,958	1740,5
441,419	2371,5
441,88	1792,5
442,34	1610,5
442,801	1710,5
443,261	1471,5
443,722	1406,5
444,182	1812,5
444,643	1536,5
445,103	3216,5
445,564	1598,5
446,024	1765,5
446,484	1687,5
446,945	1507,5
447,405	1706,5
447,865	1746,5
448,326	1648,5
448,786	1504,5
449,246	1442,5
449,706	1835,5
450,166	1728,5
450,627	1600,5
451,087	1834,5
451,547	1535,5
452,007	1696,5
452,467	1579,5
452,927	1650,5
453,387	1649,5
453,847	1529,5
454,307	1610,5
454,767	1639,5
455,227	1847,5
455,686	1659,5
456,146	1679,5
456,606	2057,5
457,066	1809,5
457,526	1693,5
457,985	1610,5
458,445	1765,5
458,905	1849,5
459,365	1642,5
459,824	1740,5
460,284	1499,5
460,743	1661,5
461,203	1574,5
461,663	1734,5
462,122	1502,5
462,582	1521,5
463,041	1653,5
463,5	1505,5
463,96	1721,5
464,419	1548,5
464,879	1606,5
465,338	1447,5
465,797	1637,5
466,257	1930,5
466,716	1667,5
467,175	1509,5
467,634	1595,5
468,093	1721,5
468,553	1731,5
469,012	1519,5
469,471	1592,5
469,93	1879,5
470,389	1804,5
470,848	1726,5
471,307	1801,5
471,766	1755,5
472,225	1512,5
472,684	1627,5
473,143	1835,5
473,602	1674,5
474,061	1510,5
474,519	1628,5
474,978	1954,5
475,437	1729,5
475,896	1532,5
476,354	1791,5
476,813	1575,5
477,272	1578,5
477,73	1890,5
478,189	1558,5
478,648	1647,5
479,106	1491,5
479,565	1691,5
480,023	1714,5
480,482	1791,5
480,94	1657,5
481,399	1609,5
481,857	1585,5
482,316	1705,5
482,774	1581,5
483,232	1542,5
483,691	1672,5
484,149	1791,5
484,607	1711,5
485,065	2092,5
485,524	1545,5
485,982	1677,5
486,44	1792,5
486,898	1743,5
487,356	2017,5
487,814	1650,5
488,272	1656,5
488,73	1802,5
489,188	1809,5
489,646	1592,5
490,104	1716,5
490,562	1540,5
491,02	1628,5
491,478	1737,5
491,936	1698,5
492,394	2001,5
492,851	1752,5
493,309	1476,5
493,767	1677,5
494,225	1667,5
494,682	1587,5
495,14	2168,5
495,598	1623,5
496,055	1689,5
496,513	1594,5
496,97	1761,5
497,428	1659,5
497,885	1622,5
498,343	1628,5
498,8	1622,5
499,258	1619,5
499,715	1605,5
500,173	1594,5
500,63	1592,5
501,087	1637,5
501,545	2025,5
502,002	1750,5
502,459	1742,5
502,916	1868,5
503,373	2467,5
503,831	1512,5
504,288	1561,5
504,745	1783,5
505,202	1685,5
505,659	1727,5
506,116	1681,5
506,573	1638,5
507,03	1634,5
507,487	1543,5
507,944	1525,5
508,401	1735,5
508,858	1579,5
509,315	1571,5
509,771	1968,5
510,228	1609,5
510,685	2135,5
511,142	1666,5
511,598	1891,5
512,055	1721,5
512,512	1668,5
512,968	1538,5
513,425	1561,5
513,881	1767,5
514,338	1693,5
514,795	2026,5
515,251	1563,5
515,708	1726,5
516,164	1716,5
516,62	1672,5
517,077	1643,5
517,533	1467,5
517,989	1621,5
518,446	1609,5
518,902	1581,5
519,358	1499,5
519,815	1710,5
520,271	1584,5
520,727	1799,5
521,183	1720,5
521,639	1657,5
522,095	1700,5
522,551	1683,5
523,007	1526,5
523,463	1738,5
523,919	1459,5
524,375	1613,5
524,831	1811,5
525,287	1590,5
525,743	1659,5
526,199	1782,5
526,655	1528,5
527,11	1556,5
527,566	1677,5
528,022	1483,5
528,478	1953,5
528,933	1726,5
529,389	1556,5
529,845	1564,5
530,3	1649,5
530,756	1697,5
531,211	1459,5
531,667	1489,5
532,122	1548,5
532,578	1667,5
533,033	1540,5
533,489	1771,5
533,944	2135,5
534,399	1695,5
534,855	1478,5
535,31	1578,5
535,765	1502,5
536,221	1695,5
536,676	2025,5
537,131	1723,5
537,586	1576,5
538,041	1612,5
538,496	1725,5
538,952	1767,5
539,407	1660,5
539,862	1589,5
540,317	1620,5
540,772	1633,5
541,226	1715,5
541,681	1616,5
542,136	1505,5
542,591	1890,5
543,046	1624,5
543,501	1599,5
543,956	1529,5
544,41	1704,5
544,865	1645,5
545,32	2563,5
545,774	1461,5
546,229	1913,5
546,684	1690,5
547,138	1838,5
547,593	1560,5
548,047	1536,5
548,502	1437,5
548,956	1578,5
549,411	1716,5
549,865	1809,5
550,32	1823,5
550,774	1736,5
551,228	1677,5
551,683	1559,5
552,137	1846,5
552,591	1529,5
553,045	1632,5
553,499	1696,5
553,954	1572,5
554,408	1874,5
554,862	1564,5
555,316	1633,5
555,77	1609,5
556,224	1665,5
556,678	1613,5
557,132	1584,5
557,586	1858,5
558,04	1665,5
558,494	1705,5
558,948	1654,5
559,401	1611,5
559,855	1819,5
560,309	1644,5
560,763	1576,5
561,216	1769,5
561,67	1572,5
562,124	1792,5
562,577	1611,5
563,031	1803,5
563,485	1607,5
563,938	1623,5
564,392	1456,5
564,845	1738,5
565,299	1557,5
565,752	1595,5
566,205	1497,5
566,659	1592,5
567,112	2415,5
567,565	1602,5
568,019	1655,5
568,472	1631,5
568,925	1579,5
569,378	1782,5
569,832	1617,5
570,285	1702,5
570,738	1784,5
571,191	1697,5
571,644	1864,5
572,097	1526,5
572,55	1837,5
573,003	1596,5
573,456	1636,5
573,909	1867,5
574,362	1755,5
574,815	1724,5
575,268	1643,5
575,72	1664,5
576,173	1714,5
576,626	1694,5
577,079	1879,5
577,531	1481,5
577,984	1638,5
578,437	1669,5
578,889	1687,5
579,342	1729,5
579,794	1621,5
580,247	1607,5
580,699	1469,5
581,152	1433,5
581,604	1740,5
582,057	1768,5
582,509	1453,5
582,961	1626,5
583,414	2079,5
583,866	1549,5
584,318	1668,5
584,77	1685,5
585,223	1541,5
585,675	1701,5
586,127	1586,5
586,579	1554,5
587,031	1788,5
587,483	1559,5
587,935	1781,5
588,387	1596,5
588,839	1559,5
589,291	1586,5
589,743	1717,5
590,195	1657,5
590,647	1515,5
591,099	1578,5
591,55	1613,5
592,002	1772,5
592,454	1641,5
592,906	1727,5
593,357	1784,5
593,809	1621,5
594,26	1788,5
594,712	1574,5
595,164	1844,5
595,615	1765,5
596,067	1539,5
596,518	1782,5
596,97	1986,5
597,421	1585,5
597,872	1708,5
598,324	1864,5
598,775	1683,5
599,226	1857,5
599,678	1596,5
600,129	1589,5
600,58	1621,5
601,031	1606,5
601,482	1746,5
601,934	1591,5
602,385	1443,5
602,836	1779,5
603,287	1911,5
603,738	1665,5
604,189	1860,5
604,64	1798,5
605,091	1756,5
605,541	1508,5
605,992	1570,5
606,443	1708,5
606,894	1595,5
607,345	1766,5
607,795	1752,5
608,246	1516,5
608,697	1606,5
609,147	1602,5
609,598	1611,5
610,049	1730,5
610,499	1579,5
610,95	1587,5
611,4	1556,5
611,851	1479,5
612,301	1792,5
612,752	2195,5
613,202	1616,5
613,652	1424,5
614,103	1765,5
614,553	2555,5
615,003	1426,5
615,453	1662,5
615,904	1666,5
616,354	1803,5
616,804	1571,5
617,254	1647,5
617,704	1630,5
618,154	1775,5
618,604	1836,5
619,054	1761,5
619,504	1767,5
619,954	1532,5
620,404	1512,5
620,854	1567,5
621,304	1610,5
621,753	1621,5
622,203	1776,5
622,653	1690,5
623,103	1699,5
623,552	1604,5
624,002	1645,5
624,452	1668,5
624,901	1567,5
625,351	1560,5
625,8	1599,5
626,25	1574,5
626,699	2261,5
627,149	1500,5
627,598	1600,5
628,048	1629,5
628,497	1548,5
628,946	1574,5
629,396	1638,5
629,845	1591,5
630,294	1505,5
630,743	1537,5
631,192	1605,5
631,642	1795,5
632,091	1618,5
632,54	1841,5
632,989	1675,5
633,438	1741,5
633,887	1634,5
634,336	1573,5
634,785	1542,5
635,234	1591,5
635,683	1686,5
636,131	1542,5
636,58	1915,5
637,029	1538,5
637,478	1722,5
637,926	1816,5
638,375	1622,5
638,824	1564,5
639,272	1575,5
639,721	1663,5
640,17	1789,5
640,618	1610,5
641,067	1763,5
641,515	1877,5
641,964	1529,5
642,412	1884,5
642,86	1629,5
643,309	1644,5
643,757	1676,5
644,205	1752,5
644,654	1603,5
645,102	1549,5
645,55	1492,5
645,998	1705,5
646,446	1629,5
646,894	1763,5
647,342	1580,5
647,791	1638,5
648,239	1597,5
648,687	1745,5
649,134	1443,5
649,582	1589,5
650,03	1646,5
650,478	1492,5
650,926	1478,5
651,374	1598,5
651,822	1656,5
652,269	1875,5
652,717	1618,5
653,165	1645,5
653,612	1590,5
654,06	1549,5
654,507	1604,5
654,955	1584,5
655,403	2007,5
655,85	1579,5
656,297	1725,5
656,745	2095,5
657,192	1667,5
657,64	1842,5
658,087	1569,5
658,534	1629,5
658,982	1865,5
659,429	1886,5
659,876	1732,5
660,323	1714,5
660,77	1706,5
661,217	1467,5
661,665	1618,5
662,112	1564,5
662,559	1680,5
663,006	1807,5
663,453	1461,5
663,899	1544,5
664,346	1511,5
664,793	1690,5
665,24	1712,5
665,687	1560,5
666,134	1626,5
666,58	1786,5
667,027	1516,5
667,474	1743,5
667,92	1766,5
668,367	1493,5
668,814	1776,5
669,26	1764,5
669,707	1759,5
670,153	1585,5
670,6	1749,5
671,046	1566,5
671,492	1656,5
671,939	1704,5
672,385	1819,5
672,831	1661,5
673,278	1513,5
673,724	2067,5
674,17	1686,5
674,616	1612,5
675,062	1756,5
675,508	1959,5
675,955	1636,5
676,401	1657,5
676,847	1492,5
677,293	1520,5
677,739	1684,5
678,184	1666,5
678,63	1650,5
679,076	1777,5
679,522	1572,5
679,968	1882,5
680,414	1683,5
680,859	1735,5
681,305	1483,5
681,751	1569,5
682,196	1506,5
682,642	1588,5
683,087	1656,5
683,533	1912,5
683,978	1652,5
684,424	1833,5
684,869	1392,5
685,315	1480,5
685,76	1461,5
686,205	2615,5
686,651	1610,5
687,096	1441,5
687,541	1599,5
687,986	1557,5
688,432	1643,5
688,877	1551,5
689,322	1515,5
689,767	1647,5
690,212	1570,5
690,657	1504,5
691,102	1616,5
691,547	1637,5
691,992	1667,5
692,437	1792,5
692,882	1550,5
693,327	1555,5
693,771	1645,5
694,216	1584,5
694,661	1897,5
695,106	1580,5
695,55	1832,5
695,995	1507,5
696,439	1704,5
696,884	1686,5
697,329	1674,5
697,773	1609,5
698,217	1647,5
698,662	1555,5
699,106	1661,5
699,551	1681,5
699,995	1746,5
700,439	1737,5
700,884	1534,5
701,328	2574,5
701,772	1789,5
702,216	1648,5
702,66	1770,5
703,105	1588,5
703,549	1687,5
703,993	1668,5
704,437	1516,5
704,881	1631,5
705,325	1506,5
705,769	1616,5
706,212	1789,5
706,656	1797,5
707,1	1546,5
707,544	1992,5
707,988	1561,5
708,431	1958,5
708,875	1630,5
709,319	1521,5
709,762	1656,5
710,206	1647,5
710,649	1374,5
711,093	1619,5
711,537	1928,5
711,98	1847,5
712,423	1689,5
712,867	1475,5
713,31	1752,5
713,753	1730,5
714,197	1631,5
714,64	1493,5
715,083	1643,5
715,526	1598,5
715,97	1696,5
716,413	1726,5
716,856	1516,5
717,299	1519,5
717,742	1902,5
718,185	1625,5
718,628	1494,5
719,071	1443,5
719,514	1473,5
719,957	1566,5
720,399	1740,5
720,842	1733,5
721,285	1411,5
721,728	1615,5
722,17	1721,5
722,613	1472,5
723,056	1487,5
723,498	1590,5
723,941	1514,5
724,383	1606,5
724,826	1614,5
725,268	1720,5
725,711	1572,5
726,153	1748,5
726,596	1849,5
727,038	1718,5
727,48	1461,5
727,923	1650,5
728,365	1834,5
728,807	1686,5
729,249	1817,5
729,691	1799,5
730,133	1710,5
730,575	1588,5
731,018	1608,5
731,46	1616,5
731,902	1578,5
732,343	1882,5
732,785	1907,5
733,227	1539,5
733,669	1863,5
734,111	1786,5
734,553	1600,5
734,994	1444,5
735,436	1906,5
735,878	1657,5
736,319	1579,5
736,761	1691,5
737,203	1639,5
737,644	1724,5
738,086	2373,5
738,527	1634,5
738,968	1660,5
739,41	1631,5
739,851	1729,5
740,293	1653,5
740,734	1679,5
741,175	1834,5
741,616	1605,5
742,058	1630,5
742,499	1869,5
742,94	1674,5
743,381	1979,5
743,822	1512,5
744,263	1837,5
744,704	1561,5
745,145	1634,5
745,586	1545,5
746,027	1637,5
746,468	1657,5
746,909	1608,5
747,349	1733,5
747,79	1740,5
748,231	1609,5
748,671	1744,5
749,112	1545,5
749,553	1662,5
749,993	1867,5
750,434	1681,5
750,874	1561,5
751,315	1417,5
751,755	1526,5
752,196	1688,5
752,636	1778,5
753,077	1505,5
753,517	1601,5
753,957	1581,5
754,397	1609,5
754,838	1622,5
755,278	1727,5
755,718	1752,5
756,158	1406,5
756,598	1662,5
757,038	1673,5
757,478	1875,5
757,918	1520,5
758,358	1683,5
758,798	1616,5
759,238	1650,5
759,678	1633,5
760,117	1683,5
760,557	1604,5
760,997	1940,5
761,437	2052,5
761,876	1820,5
762,316	1748,5
762,756	1599,5
