Jaz Data File
++++++++++++++++++++++++++++++++++++
Date: Mon Sep 17 14:59:05 2018
User: jaz
Dark Spectrum Present: Yes
Reference Spectrum Present: Yes
Processed Spectrum Present: Yes
Spectrometers: JAZA3098
Integration Time (usec): 232000 (JAZA3098)
Spectra Averaged: 20 (JAZA3098)
Boxcar Smoothing: 0 (JAZA3098)
Correct for Electrical Dark: No (JAZA3098)
Strobe/Lamp Enabled: Yes (JAZA3098)
Correct for Detector Non-linearity: No (JAZA3098)
Correct for Stray Light: No (JAZA3098)
Number of Pixels in Processed Spectrum: 2048
>>>>>Begin Processed Spectral Data<<<<<
W	D	R	S	P
190.313904	0.000000	0.000000	0.000000	0.000000
190.695511	0.000000	0.000000	0.000000	0.000000
191.077087	931.613953	922.574585	924.043579	83.748932
191.458633	937.941528	933.760742	918.393921	467.558167
191.840149	949.692566	965.172241	940.540222	-59.124908
192.221634	959.183777	945.285950	952.065308	51.220016
192.603088	975.228638	984.154968	977.149414	21.518095
192.984528	1000.425598	1008.448059	987.318665	-163.377960
193.365921	995.792969	1019.521179	998.278809	10.476306
193.747284	988.222656	987.544617	982.008118	916.545166
194.128616	988.109558	1000.086731	980.087097	-66.981255
194.509918	992.629272	1016.244507	998.278931	23.923786
194.891190	997.487976	1004.154480	993.081421	-66.099945
195.272446	994.663208	1002.572571	993.646301	-12.856999
195.653656	1029.125610	1043.475464	1025.396729	-25.985504
196.034836	1014.323608	1014.436646	998.165894	-14294.168945
196.416000	979.070435	991.838257	987.883606	69.026428
196.797104	1010.707825	1010.255859	1004.267456	1424.969604
197.178192	1007.431152	1025.509766	977.262512	-166.874741
197.559265	985.623718	1003.137512	969.804993	-90.321526
197.940292	971.161011	990.256470	974.324707	16.567795
198.321304	975.906433	979.409363	964.833618	-316.101563
198.702271	979.748352	985.736816	977.488403	-37.738369
199.083221	983.477051	978.279419	959.974731	452.173615
199.464111	971.951965	967.997192	979.635254	-194.278885
199.844986	977.714478	977.714478	956.020142	0.000000
200.225830	960.991821	986.188782	968.562134	30.044546
200.606659	962.912476	1007.318054	959.635864	-7.378828
200.987427	1012.063843	1080.988525	1017.374390	7.704855
201.368195	960.087708	998.956909	970.369934	26.453403
201.748917	984.832825	993.759277	979.635254	-58.226612
202.129608	964.268372	989.239563	967.319153	12.217203
202.510284	976.019531	998.617859	968.223022	-34.500378
202.890915	953.195190	1000.199829	967.545288	30.529110
203.271515	972.064819	995.341003	973.533875	6.311409
203.652100	970.596008	999.069702	971.725891	3.968164
204.032623	969.692078	979.183289	976.245483	69.047096
204.413147	961.895691	988.109680	947.658691	-54.310696
204.793625	970.708984	1001.216614	970.257019	-1.481483
205.174088	956.811035	986.075806	964.494446	26.254812
205.554504	950.483398	972.403809	965.624329	69.072296
205.934906	949.918457	974.550476	959.183716	37.614697
206.315247	957.375854	973.759766	963.138489	35.172520
206.695587	958.844849	992.629211	957.263000	-4.682190
207.075882	972.742859	986.527710	982.799011	72.950752
207.456146	939.975281	971.725891	952.517395	39.501965
207.836380	965.737427	997.375000	950.822571	-47.142857
208.216599	961.104614	995.679993	956.132996	-14.379072
208.596771	952.291504	966.980164	945.172974	-48.462761
208.976913	973.420715	1000.086731	964.042480	-35.169239
209.357025	1026.300659	1039.746704	1014.549622	-87.394005
209.737106	963.703430	981.443054	946.189819	-98.725945
210.117157	967.319214	987.883606	931.275024	-175.274765
210.497177	971.499817	966.415344	942.122253	577.789795
210.877167	968.336121	984.606934	957.940918	-63.888649
211.257126	967.771301	988.335632	954.664185	-63.737141
211.637070	992.629272	1016.922546	972.290894	-83.720207
212.016968	964.607422	1000.538757	953.195190	-31.761223
212.396835	965.285278	984.606934	963.251587	-10.525452
212.776672	959.409973	976.923645	947.545776	-67.742485
213.156464	962.799500	985.510925	950.483521	-54.228119
213.536255	945.850891	981.104187	964.381348	52.563755
213.916000	962.912598	983.929016	939.975281	-109.139992
214.295700	956.924011	980.426270	951.387512	-23.557306
214.675400	965.172363	979.635254	950.370422	-102.344276
215.055038	945.624878	979.522339	957.941040	36.333584
215.434662	975.002625	982.347046	962.008606	-176.923645
215.814240	992.742310	1020.086121	990.595398	-7.851545
216.193787	960.878723	1002.233582	971.725952	26.229637
216.573334	980.087280	994.437134	961.443726	-129.921570
216.952820	965.963257	995.002075	940.427368	-87.937080
217.332275	953.421204	976.810547	955.907104	10.628348
217.711716	967.771179	1001.216675	965.511353	-6.756744
218.091125	952.404297	988.335632	952.856445	1.258368
218.470505	1018.165344	1050.367798	1003.928406	-44.210728
218.849854	958.166992	996.018921	966.189331	21.194002
219.229156	970.595886	985.397827	983.138062	84.733315
219.608444	959.522827	982.460144	966.641235	31.034180
219.987671	998.391968	1023.023926	1002.572632	16.972521
220.366898	963.364624	1008.109009	975.454712	27.020348
220.746094	990.143433	1010.481934	981.104187	-44.444012
221.125244	981.330200	1009.351868	998.617798	61.693680
221.504364	961.104797	998.165894	976.132507	40.548477
221.883469	944.269043	1004.719360	958.957886	24.299034
222.262512	948.675781	997.261902	967.093384	37.907127
222.641556	954.551147	973.872864	952.969360	-8.186577
223.020554	940.992065	996.019043	942.348145	2.464390
223.399521	958.618774	997.600891	963.477539	12.464087
223.778473	965.850403	982.799133	943.591003	-131.333725
224.157364	953.421265	986.075806	930.258118	-70.933922
224.536240	967.093140	967.545105	966.754272	-74.976364
224.915085	951.387390	984.154968	937.489563	-42.413349
225.293900	971.499817	983.250977	945.172974	-224.036133
225.672684	970.595886	997.148926	967.319214	-12.340103
226.051437	970.369995	1005.962219	968.674988	-4.762297
226.430161	938.506470	990.256470	936.020630	-4.803555
226.808838	944.268921	997.600891	953.421265	17.161083
227.187500	980.765137	1048.786011	994.889160	20.764248
227.566132	962.234680	1010.142883	961.443726	-1.650979
227.944717	969.240112	1019.521301	976.471680	14.382252
228.323288	978.731262	1031.837280	980.991333	4.255772
228.701813	951.839478	1022.458984	982.121216	42.880135
229.080307	953.986206	1021.894165	961.556763	11.148261
229.458786	972.855835	1043.814331	972.064819	-1.114758
229.837234	957.489075	1041.893555	981.443054	28.379986
230.215637	945.285950	1037.938721	974.098633	31.097486
230.594009	949.692566	1062.344849	991.047485	36.710236
230.972351	942.009155	1049.915894	982.573059	37.591633
231.350662	969.014038	1039.972778	995.228027	36.942581
231.728958	938.054504	1049.125000	989.013550	45.879913
232.107193	966.641235	1053.644775	984.042114	20.000196
232.485413	952.065308	1036.469971	960.426636	9.906240
232.863602	1060.424072	1156.127808	1090.253906	31.168934
233.241760	957.828003	1050.706787	989.465454	34.063164
233.619873	942.913208	1041.667603	957.488953	14.759591
233.997986	988.674683	1057.260376	1000.877563	17.792166
234.376038	968.223267	1055.113525	991.951294	27.308041
234.754074	966.641235	1070.254517	975.228638	8.287936
235.132065	958.844849	1044.605225	969.804993	12.779963
235.510025	969.579102	1050.819824	988.787720	23.644075
235.887970	963.364563	1051.610962	976.245483	14.596539
236.265869	971.499817	1051.045898	983.928894	15.625003
236.643738	967.093262	1058.842285	987.431763	22.167540
237.021576	950.483582	1064.491821	973.646667	20.317028
237.399384	941.896118	1054.322510	970.030945	25.025108
237.777161	969.918091	1086.637939	1002.459595	27.880009
238.154892	954.890259	1066.525635	983.590027	25.708488
238.532623	956.923950	1080.875610	981.895020	20.145813
238.910309	940.879211	1060.989136	985.397766	37.064842
239.287949	951.839355	1070.141479	967.206238	12.989524
239.665573	947.319702	1071.384277	977.601379	24.407997
240.043167	960.313660	1081.101563	992.290222	26.473316
240.420715	955.003113	1090.705811	992.629272	27.726906
240.798233	965.172363	1088.671875	1001.668579	29.551708
241.175735	966.528320	1097.033447	981.217163	11.255376
241.553207	944.381958	1097.937256	998.165894	35.025776
241.930634	944.720825	1092.513672	983.250977	26.070375
242.308014	963.364563	1141.777832	999.521790	20.265997
242.685394	951.726379	1151.269165	972.516724	10.418991
243.062729	969.014160	1189.234375	1018.391479	22.421793
243.440033	970.031067	1200.985596	1015.114563	19.520508
243.817307	977.036499	1228.894287	1044.718262	26.873007
244.194534	971.161011	1214.318359	1034.888062	26.208153
244.571747	982.346985	1238.046509	1042.910400	23.685385
244.948929	960.652710	1230.137085	1035.227051	27.672974
245.326065	965.172485	1192.398071	1023.249878	25.559355
245.703186	979.974426	1227.312256	1032.741333	21.333941
246.080261	950.370605	1193.075928	1022.232910	29.608871
246.457306	947.319702	1208.216797	1021.329102	28.367275
246.834320	969.466125	1234.543701	1030.933472	23.188437
247.211304	968.901184	1268.780151	1038.051880	23.059536
247.588257	972.064758	1307.197388	1055.226563	24.814594
247.965195	971.612976	1356.235596	1066.751709	24.735605
248.342087	945.850891	1386.743164	1069.011475	27.934393
248.718933	950.935547	1401.771240	1064.604736	25.212997
249.095764	939.297241	1419.171631	1071.497314	27.548891
249.472549	955.794067	1411.262451	1072.288208	25.576778
249.849319	951.839478	1370.020508	1059.746094	25.803804
250.226044	970.144043	1356.009521	1048.786011	20.380669
250.602737	954.212219	1328.439697	1043.927368	23.973427
250.979401	965.285339	1295.785034	1045.622314	24.307730
251.356033	979.409302	1306.519287	1050.706787	21.796181
251.732635	971.612976	1286.180908	1035.905029	20.438210
252.109207	967.658203	1280.757202	1032.289307	20.642385
252.485748	971.048035	1292.960327	1046.413330	23.411749
252.862244	949.127625	1293.751343	1012.854797	18.491814
253.238724	962.347534	1301.660767	1030.368408	20.046631
253.615158	942.800110	1297.932129	1033.532104	25.548807
253.991577	962.573608	1315.897705	1029.351440	18.899881
254.367950	955.455078	1317.705566	1027.317627	19.837807
254.744308	986.979797	1334.880127	1079.406616	26.567039
255.120621	956.359009	1302.338623	1009.803894	15.447409
255.496902	958.505981	1272.395874	1015.453491	18.142511
255.873154	953.195190	1272.734863	1006.753235	16.761000
256.249390	946.867859	1259.514893	1011.724792	20.744459
256.625549	956.697937	1287.762695	1012.063843	16.723587
257.001709	992.403198	1324.598022	1067.090576	22.483006
257.377838	957.149902	1332.959229	1042.910400	22.820215
257.753937	955.568176	1321.095337	1050.480957	25.966000
258.129974	949.353699	1330.134399	1031.611450	21.602396
258.506012	941.895996	1374.766113	1035.000977	21.508757
258.881989	968.223145	1401.657959	1057.147461	20.516191
259.257935	962.799622	1420.527588	1048.446899	18.711393
259.633911	948.788696	1483.237915	1056.469482	20.147991
260.009766	960.087708	1530.016357	1064.830811	18.378283
260.385651	1006.188293	1620.296265	1112.965088	17.387300
260.761475	950.144409	1634.759521	1088.784912	20.250868
261.137299	962.121582	1704.135986	1105.394653	19.308664
261.513062	939.862305	1729.333008	1093.191650	19.421791
261.888763	995.454102	1758.823975	1127.201904	17.258711
262.264496	957.941040	1707.186768	1084.491211	16.890343
262.640137	962.912476	1668.091797	1086.977051	17.593338
263.015808	950.596558	1592.500488	1044.492310	14.627695
263.391388	988.335632	1595.438232	1085.395142	15.987332
263.766998	993.307251	1572.161987	1102.795898	18.914701
264.142517	977.940430	1549.789917	1091.383545	19.837933
264.518036	954.890137	1505.610229	1044.266357	16.228973
264.893524	971.612915	1499.169678	1055.000488	15.806370
265.268951	983.815918	1536.004883	1067.994507	15.244526
265.644379	947.093628	1469.566040	1017.939331	13.559702
266.019745	958.957886	1465.837280	1053.757568	18.702612
266.395111	971.047852	1485.158813	1025.848755	10.659353
266.770386	977.714355	1519.734131	1059.068359	15.009417
267.145691	963.816589	1529.790161	1054.548584	16.031136
267.520966	970.369995	1560.975830	1061.215088	15.381679
267.896149	978.505371	1593.404541	1079.632568	16.446142
268.271362	969.917969	1588.432861	1063.022827	15.052970
268.646515	943.139038	1600.974854	1042.119507	15.046379
269.021606	974.889771	1641.313110	1081.214600	15.954548
269.396729	959.296875	1639.730835	1042.006470	12.155418
269.771790	940.088196	1627.188965	1069.011597	18.763391
270.146790	941.218262	1647.188477	1061.441040	17.029440
270.521790	962.799622	1651.369141	1078.050659	16.737749
270.896759	965.624390	1659.730225	1082.683350	16.864714
271.271667	974.776550	1703.457764	1072.288208	13.381937
271.646545	948.449585	1716.225952	1066.073608	15.320089
272.021423	952.178528	1781.422119	1066.299683	13.762078
272.396271	940.653198	1819.726196	1089.349976	16.915180
272.771027	959.974792	1864.244751	1103.925659	15.919015
273.145813	963.025757	1906.390625	1102.230957	14.756242
273.520538	980.539185	1935.881226	1125.846069	15.209933
273.895233	978.279175	1930.683838	1132.964600	16.241566
274.269897	959.296875	1881.080322	1120.987549	17.541069
274.644501	966.302368	1844.810181	1100.649170	15.292613
275.019135	987.657593	1842.324219	1107.993408	14.079854
275.393677	949.692383	1814.867554	1088.897827	16.089857
275.768250	948.110535	1814.076416	1062.458008	13.204617
276.142700	932.630859	1816.336304	1083.361328	17.056641
276.517212	955.907043	1854.640625	1083.474365	14.194119
276.891632	962.686523	1859.273193	1109.801392	16.408327
277.266022	954.099304	1873.623047	1097.711304	15.618085
277.640381	954.890137	1922.548218	1090.931641	14.058840
278.014740	981.443176	1929.779541	1106.976685	13.237234
278.389038	955.794128	1957.349609	1116.241821	16.019850
278.763336	954.890259	1966.727905	1110.479248	15.376873
279.137543	944.608032	1958.140625	1103.812744	15.707903
279.511780	949.918579	1956.219482	1104.716675	15.382883
279.885925	954.325195	1977.236328	1119.631470	16.160376
280.260101	956.020020	1952.491455	1104.377808	14.888313
280.634186	966.415161	1990.230469	1112.287231	14.247890
281.008301	985.171875	2048.533691	1132.738647	13.877381
281.382294	956.132935	2043.901001	1109.010498	14.054243
281.756348	970.144043	2131.017334	1123.699219	13.227557
282.130280	943.591125	2177.682861	1143.359863	16.187510
282.504272	971.386902	2266.381348	1158.274536	14.431540
282.878143	955.681152	2271.013916	1153.867920	15.067424
283.252014	970.708862	2323.780762	1175.901367	15.164937
283.625854	1001.555542	2400.162598	1220.081055	15.624511
283.999664	968.675171	2376.095947	1166.749146	14.073544
284.373444	962.121460	2407.733643	1162.455322	13.858064
284.747192	963.929565	2369.429199	1179.064941	15.306684
285.120941	983.476929	2396.885986	1214.318604	16.332262
285.494629	936.472534	2404.569580	1161.664429	15.339033
285.868256	956.811035	2435.642334	1174.206421	14.700486
286.241882	982.234070	2489.990967	1185.392578	13.474222
286.615448	966.867188	2542.645020	1224.939575	16.377460
286.988983	938.958374	2560.158691	1186.409668	15.263462
287.362518	985.171997	2609.875000	1210.363647	13.860481
287.736023	962.686646	2639.930664	1202.454346	14.295338
288.109467	959.070923	2646.145020	1193.075928	13.870464
288.482880	973.985718	2634.394043	1220.758789	14.862192
288.856262	979.748230	2638.461426	1233.979004	15.326988
289.229584	976.923340	2594.508301	1198.951416	13.725899
289.602936	966.302429	2591.457275	1184.036865	13.397766
289.976227	991.612183	2607.163086	1195.335938	12.610172
290.349457	958.618958	2641.625488	1185.844482	13.501166
290.722687	958.279968	2656.427490	1202.680176	14.392166
291.095886	949.579590	2738.120117	1203.697388	14.208110
291.469025	979.635132	2819.812744	1218.837891	12.998896
291.842133	954.438171	2826.140381	1219.854858	14.180498
292.215240	969.805054	2885.460693	1243.018188	14.262121
292.588287	952.743286	2847.043457	1220.871948	14.154497
292.961304	944.608032	2851.111572	1200.872314	13.441585
293.334320	964.607544	2858.003662	1234.430786	14.250755
293.707245	955.455078	2837.100586	1219.628906	14.039511
294.080170	968.110168	2845.235840	1228.894287	13.892735
294.453064	940.540344	2910.318848	1239.402466	15.172372
294.825897	965.963257	2972.690186	1230.137085	13.164413
295.198730	935.229675	3035.513428	1260.870850	15.504628
295.571533	950.596375	3084.099854	1257.255127	14.373483
295.944275	957.150024	3153.476318	1279.853271	14.692865
296.317017	985.171753	3263.416992	1307.762207	14.159602
296.689697	965.285339	3318.444092	1293.638428	13.953716
297.062317	957.827942	3324.093262	1291.039551	14.081752
297.434967	977.375488	3395.843262	1318.948242	14.123519
297.807526	958.279785	3477.196533	1332.959351	14.874631
298.180115	946.189819	3553.014160	1327.309814	14.620088
298.552612	969.805054	3544.087402	1334.089233	14.150903
298.925110	951.952332	3584.990234	1341.207642	14.783506
299.297546	987.205566	3542.393066	1343.806396	13.955956
299.669983	953.421265	3482.281738	1330.360474	14.905498
300.042358	981.217163	3408.949951	1357.817383	15.512424
300.414734	960.991699	3351.211426	1320.530396	15.042077
300.787048	943.139038	3292.794434	1312.620850	15.724937
301.159332	954.776978	3256.863770	1299.739990	14.984796
301.531616	935.455750	3216.525879	1307.536377	16.311670
301.903809	964.268372	3213.474609	1306.067383	15.196427
302.276031	961.556641	3203.757568	1292.734375	14.770207
302.648163	948.675659	3195.961426	1288.666748	15.128966
303.020294	941.218140	3193.475098	1300.417847	15.948435
303.392395	958.618835	3203.418701	1321.885986	16.182608
303.764435	947.658691	3132.233887	1282.339111	15.320160
304.136444	948.336548	3137.092773	1282.904175	15.285741
304.508453	962.121704	3169.859863	1303.129517	15.446025
304.880371	995.228149	3147.035645	1300.078857	14.167192
305.252319	970.257019	3102.856445	1280.305420	14.538521
305.624207	987.431641	3121.161133	1306.971313	14.975641
305.996033	990.595398	3127.488525	1298.384033	14.403558
306.367859	960.878723	3114.494629	1276.802612	14.669462
306.739655	948.901672	3090.539795	1270.249023	15.004745
307.111389	949.240601	3152.572021	1307.649292	16.266670
307.483124	965.172363	3168.504395	1284.824951	14.507690
307.854828	972.177734	3201.271729	1314.428711	15.353815
308.226471	952.291321	3211.327637	1298.723145	15.335381
308.598083	964.833496	3287.145264	1284.260010	13.754679
308.969666	968.788208	3297.766357	1325.953857	15.335724
309.341187	975.115723	3373.583496	1327.987549	14.712385
309.712738	960.426636	3454.485596	1335.106201	15.022882
310.084167	963.364563	3470.869141	1354.992676	15.618240
310.455658	949.692383	3522.393311	1362.337280	16.039366
310.827057	970.257019	3602.842529	1379.398682	15.541439
311.198456	971.951782	3592.673828	1360.077271	14.809868
311.569794	960.991699	3566.233887	1346.066162	14.780755
311.941132	958.166870	3599.566406	1363.919067	15.361259
312.312408	948.336548	3599.792236	1337.252808	14.668029
312.683655	962.234558	3590.865967	1360.077393	15.134980
313.054840	969.805054	3567.250732	1356.122437	14.872972
313.426056	969.127136	3574.595215	1353.297729	14.744782
313.797180	986.075867	3601.374268	1373.636230	14.818974
314.168304	967.206177	3578.210938	1349.795166	14.652941
314.539368	930.709961	3542.618652	1331.716309	15.353001
314.910431	943.477905	3573.126465	1343.128418	15.197868
315.281433	951.274536	3629.283203	1354.653809	15.062656
315.652435	958.392761	3729.732422	1371.941406	14.922338
316.023346	959.748840	3740.805908	1358.382324	14.333883
316.394287	949.805481	3747.132813	1356.348389	14.533261
316.765137	976.019531	3750.071045	1358.269287	13.779476
317.135986	980.539246	3708.489746	1360.077271	13.912937
317.506775	959.522949	3634.593262	1335.557861	14.057011
317.877594	990.821472	3617.871094	1364.484009	14.223658
318.248291	973.759766	3555.499512	1341.433716	14.241325
318.619019	988.900513	3542.166748	1346.179321	13.993011
318.989655	977.488403	3600.244629	1357.026611	14.470967
319.360321	966.302368	3605.441895	1341.433716	14.214153
319.730896	965.172485	3634.367676	1354.766479	14.595934
320.101501	949.127625	3658.209473	1331.038208	14.097418
320.472015	955.455200	3685.213623	1342.337646	14.172773
320.842529	965.963379	3713.349121	1350.811890	14.007808
321.213013	969.917847	3683.744629	1350.698975	14.031152
