Jaz Data File
++++++++++++++++++++++++++++++++++++
Date: Mon Sep 17 15:00:27 2018
User: jaz
Dark Spectrum Present: Yes
Reference Spectrum Present: Yes
Processed Spectrum Present: Yes
Spectrometers: JAZA3098
Integration Time (usec): 232000 (JAZA3098)
Spectra Averaged: 20 (JAZA3098)
Boxcar Smoothing: 0 (JAZA3098)
Correct for Electrical Dark: No (JAZA3098)
Strobe/Lamp Enabled: Yes (JAZA3098)
Correct for Detector Non-linearity: No (JAZA3098)
Correct for Stray Light: No (JAZA3098)
Number of Pixels in Processed Spectrum: 2048
>>>>>Begin Processed Spectral Data<<<<<
W	D	R	S	P
190.313904	0.000000	0.000000	0.000000	0.000000
190.695511	0.000000	0.000000	0.000000	0.000000
191.077087	931.613953	922.574585	913.761414	197.497650
191.458633	937.941528	933.760742	923.365601	348.640839
191.840149	949.692566	965.172241	930.823059	-121.898598
192.221634	959.183777	945.285950	949.918579	66.666519
192.603088	975.228638	984.154968	974.324585	-10.127933
192.984528	1000.425598	1008.448059	985.623718	-184.505478
193.365921	995.792969	1019.521179	998.052917	9.524312
193.747284	988.222656	987.544617	977.149536	1633.108276
194.128616	988.109558	1000.086731	990.934387	23.585108
194.509918	992.629272	1016.244507	987.770630	-20.574188
194.891190	997.487976	1004.154480	981.104187	-245.762833
195.272446	994.663208	1002.572571	975.002625	-248.573547
195.653656	1029.125610	1043.475464	1016.696472	-86.615089
196.034836	1014.323608	1014.436646	989.578491	-21891.144531
196.416000	979.070435	991.838257	976.245483	-22.125551
196.797104	1010.707825	1010.255859	990.708374	4424.996582
197.178192	1007.431152	1025.509766	998.165894	-51.249832
197.559265	985.623718	1003.137512	974.889648	-61.289230
197.940292	971.161011	990.256470	970.821960	-1.775555
198.321304	975.906433	979.409363	966.189148	-277.404510
198.702271	979.748352	985.736816	967.432251	-205.663757
199.083221	983.477051	978.279419	976.584351	132.612320
199.464111	971.951965	967.997192	969.692017	57.144840
199.844986	977.714478	977.714478	981.443176	0.000000
200.225830	960.991821	986.188782	966.980286	23.766615
200.606659	962.912476	1007.318054	955.794067	-16.030437
200.987427	1012.063843	1080.988525	999.747742	-17.868927
201.368195	960.087708	998.956909	969.692078	24.709461
201.748917	984.832825	993.759277	976.132507	-97.466682
202.129608	964.268372	989.239563	965.059448	3.167957
202.510284	976.019531	998.617859	952.630371	-103.499519
202.890915	953.195190	1000.199829	944.608093	-18.268616
203.271515	972.064819	995.341003	952.178528	-85.436218
203.652100	970.596008	999.069702	963.816406	-23.810055
204.032623	969.692078	979.183289	935.003601	-365.479980
204.413147	961.895691	988.109680	946.641785	-58.189945
204.793625	970.708984	1001.216614	948.675659	-72.222343
205.174088	956.811035	986.075806	945.624817	-38.224178
205.554504	950.483398	972.403809	937.828308	-57.731995
205.934906	949.918457	974.550476	940.540222	-38.073349
206.315247	957.375854	973.759766	950.822388	-39.999405
206.695587	958.844849	992.629211	937.150574	-64.213951
207.075882	972.742859	986.527710	947.545776	-182.788208
207.456146	939.975281	971.725891	951.613464	36.654991
207.836380	965.737427	997.375000	966.867188	3.570946
208.216599	961.104614	995.679993	944.155945	-49.019478
208.596771	952.291504	966.980164	958.392883	41.538029
208.976913	973.420715	1000.086731	968.449219	-18.643568
209.357025	1026.300659	1039.746704	1013.306641	-96.638222
209.737106	963.703430	981.443054	974.550598	61.146549
210.117157	967.319214	987.883606	955.116211	-59.340450
210.497177	971.499817	966.415344	952.856445	366.672668
210.877167	968.336121	984.606934	956.810913	-70.833633
211.257126	967.771301	988.335632	947.771667	-97.253998
211.637070	992.629272	1016.922546	969.240112	-96.278336
212.016968	964.607422	1000.538757	936.924622	-77.043617
212.396835	965.285278	984.606934	954.890259	-53.799839
212.776672	959.409973	976.923645	924.269531	-200.645767
213.156464	962.799500	985.510925	944.946960	-78.605980
213.536255	945.850891	981.104187	925.964355	-56.410431
213.916000	962.912598	983.929016	962.573547	-1.613264
214.295700	956.924011	980.426270	945.737915	-47.595837
214.675400	965.172363	979.635254	962.799500	-16.406567
215.055038	945.624878	979.522339	938.845398	-19.999964
215.434662	975.002625	982.347046	953.647278	-290.769623
215.814240	992.742310	1020.086121	978.279297	-52.893185
216.193787	960.878723	1002.233582	944.720886	-39.071194
216.573334	980.087280	994.437134	969.014038	-77.166237
216.952820	965.963257	995.002075	949.127563	-57.976509
217.332275	953.421204	976.810547	953.308289	-0.482763
217.711716	967.771179	1001.216675	966.076355	-5.067421
218.091125	952.404297	988.335632	938.732300	-38.050346
218.470505	1018.165344	1050.367798	1005.849243	-38.245846
218.849854	958.166992	996.018921	953.647278	-11.940513
219.229156	970.595886	985.397827	969.014160	-10.685937
219.608444	959.522827	982.460144	957.488892	-8.867365
219.987671	998.391968	1023.023926	983.928894	-58.716705
220.366898	963.364624	1008.109009	976.584595	29.545542
220.746094	990.143433	1010.481934	991.612427	7.222726
221.125244	981.330200	1009.351868	986.188843	17.338877
221.504364	961.104797	998.165894	965.172363	10.975299
221.883469	944.269043	1004.719360	939.975403	-7.102758
222.262512	948.675781	997.261902	961.895630	27.209105
222.641556	954.551147	973.872864	934.212708	-105.262077
223.020554	940.992065	996.019043	945.511902	8.213856
223.399521	958.618774	997.600891	954.551147	-10.434597
223.778473	965.850403	982.799133	932.178894	-198.666855
224.157364	953.421265	986.075806	938.506348	-45.674862
224.536240	967.093140	967.545105	952.517456	-3224.956055
224.915085	951.387390	984.154968	927.772095	-72.069092
225.293900	971.499817	983.250977	953.760132	-150.961151
225.672684	970.595886	997.148926	957.037109	-51.062992
226.051437	970.369995	1005.962219	972.290833	5.396790
226.430161	938.506470	990.256470	938.506470	0.000000
226.808838	944.268921	997.600891	940.766113	-6.567932
227.187500	980.765137	1048.786011	992.968262	17.940266
227.566132	962.234680	1010.142883	952.291321	-20.755024
227.944717	969.240112	1019.521301	951.726379	-34.831581
228.323288	978.731262	1031.837280	964.607422	-26.595554
228.701813	951.839478	1022.458984	981.217102	41.599873
229.080307	953.986206	1021.894165	946.076843	-11.647181
229.458786	972.855835	1043.814331	972.290833	-0.796244
229.837234	957.489075	1041.893555	967.997253	12.449788
230.215637	945.285950	1037.938721	957.940918	13.658488
230.594009	949.692566	1062.344849	963.138550	11.935829
230.972351	942.009155	1049.915894	970.257019	26.178036
231.350662	969.014038	1039.972778	972.742981	5.255086
231.728958	938.054504	1049.125000	960.087708	19.837133
232.107193	966.641235	1053.644775	969.240112	2.987093
232.485413	952.065308	1036.469971	965.624207	16.064159
232.863602	1060.424072	1156.127808	1059.859253	-0.590175
233.241760	957.828003	1050.706787	972.516785	15.815002
233.619873	942.913208	1041.667603	963.477417	20.823589
233.997986	988.674683	1057.260376	985.736694	-4.283675
234.376038	968.223267	1055.113525	970.030945	2.080415
234.754074	966.641235	1070.254517	995.792969	28.135132
235.132065	958.844849	1044.605225	956.585083	-2.634976
235.510025	969.579102	1050.819824	982.686035	16.133453
235.887970	963.364563	1051.610962	951.387512	-13.572283
236.265869	971.499817	1051.045898	975.906616	5.539933
236.643738	967.093262	1058.842285	979.861206	13.916163
237.021576	950.483582	1064.491821	963.590332	11.496319
237.399384	941.896118	1054.322510	956.472046	12.964863
237.777161	969.918091	1086.637939	991.386414	18.393036
238.154892	954.890259	1066.525635	967.545227	11.335984
238.532623	956.923950	1080.875610	955.229187	-1.367278
238.910309	940.879211	1060.989136	951.726257	9.030932
239.287949	951.839355	1070.141479	951.500488	-0.286442
239.665573	947.319702	1071.384277	972.177856	20.036465
240.043167	960.313660	1081.101563	979.635254	15.996299
240.420715	955.003113	1090.705811	970.030945	11.074085
240.798233	965.172363	1088.671875	975.228638	8.142764
241.175735	966.528320	1097.033447	962.121704	-3.376585
241.553207	944.381958	1097.937256	948.449585	2.648966
241.930634	944.720825	1092.513672	950.370483	3.822687
242.308014	963.364563	1141.777832	974.663574	6.333055
242.685394	951.726379	1151.269165	994.550110	21.460926
243.062729	969.014160	1189.234375	982.347168	6.054398
243.440033	970.031067	1200.985596	981.104187	4.794502
243.817307	977.036499	1228.894287	1014.210632	14.759970
244.194534	971.161011	1214.318359	996.809937	10.548284
244.571747	982.346985	1238.046509	998.956848	6.495852
244.948929	960.652710	1230.137085	989.578491	10.733750
245.326065	965.172485	1192.398071	983.024902	7.856693
245.703186	979.974426	1227.312256	1000.651672	8.359921
246.080261	950.370605	1193.075928	972.290833	9.031622
246.457306	947.319702	1208.216797	983.364075	13.815552
246.834320	969.466125	1234.543701	1002.007629	12.276219
247.211304	968.901184	1268.780151	988.561646	6.556132
247.588257	972.064758	1307.197388	1004.380371	9.642634
247.965195	971.612976	1356.235596	1010.369019	10.076382
248.342087	945.850891	1386.743164	1018.391296	16.453091
248.718933	950.935547	1401.771240	998.843750	10.626533
249.095764	939.297241	1419.171631	1009.351929	14.598547
249.472549	955.794067	1411.262451	1027.543579	15.752907
249.849319	951.839478	1370.020508	998.391907	11.132124
250.226044	970.144043	1356.009521	1000.651733	7.906302
250.602737	954.212219	1328.439697	986.188965	8.544735
250.979401	965.285339	1295.785034	995.906067	9.264979
251.356033	979.409302	1306.519287	1016.583374	11.364395
251.732635	971.612976	1286.180908	1006.075378	10.955472
252.109207	967.658203	1280.757202	1005.397461	12.053458
252.485748	971.048035	1292.960327	1008.786987	11.723365
252.862244	949.127625	1293.751343	990.934448	12.131151
253.238724	962.347534	1301.660767	1014.097778	15.251467
253.615158	942.800110	1297.932129	994.776062	14.635671
253.991577	962.573608	1315.897705	988.900696	7.451257
254.367950	955.455078	1317.705566	982.234009	7.392379
254.744308	986.979797	1334.880127	1034.097168	13.543353
255.120621	956.359009	1302.338623	998.052856	12.050955
255.496902	958.505981	1272.395874	994.550110	11.483048
255.873154	953.195190	1272.734863	957.488892	1.343715
256.249390	946.867859	1259.514893	970.483032	7.553302
256.625549	956.697937	1287.762695	974.211731	5.290142
257.001709	992.403198	1324.598022	1018.052368	7.721123
257.377838	957.149902	1332.959229	1000.425659	11.515349
257.753937	955.568176	1321.095337	982.460083	7.357020
258.129974	949.353699	1330.134399	966.641235	4.540024
258.506012	941.895996	1374.766113	1005.849304	14.774249
258.881989	968.223145	1401.657959	1019.295288	11.783120
259.257935	962.799622	1420.527588	1010.707886	10.466537
259.633911	948.788696	1483.237915	1013.532715	12.114158
260.009766	960.087708	1530.016357	1018.278320	10.210157
260.385651	1006.188293	1620.296265	1049.915771	7.120487
260.761475	950.144409	1634.759521	1028.560425	11.454029
261.137299	962.121582	1704.135986	1042.119507	10.781182
261.513062	939.862305	1729.333008	1038.955688	12.551876
261.888763	995.454102	1758.823975	1062.909912	8.836583
262.264496	957.941040	1707.186768	1034.210083	10.179443
262.640137	962.912476	1668.091797	1036.921997	10.495135
263.015808	950.596558	1592.500488	1032.741089	12.797013
263.391388	988.335632	1595.438232	1045.509155	9.417440
263.766998	993.307251	1572.161987	1051.497925	10.052725
264.142517	977.940430	1549.789917	1045.170288	11.756565
264.518036	954.890137	1505.610229	993.194214	6.955271
264.893524	971.612915	1499.169678	1003.476440	6.039829
265.268951	983.815918	1536.004883	1028.560669	8.103159
265.644379	947.093628	1469.566040	997.261902	9.602091
266.019745	958.957886	1465.837280	997.601074	7.623744
266.395111	971.047852	1485.158813	992.403320	4.153864
266.770386	977.714355	1519.734131	1024.492798	8.630394
267.145691	963.816589	1529.790161	1004.380371	7.167080
267.520966	970.369995	1560.975830	1015.227661	7.595195
267.896149	978.505371	1593.404541	1032.063232	8.710023
268.271362	969.917969	1588.432861	1014.888672	7.270755
268.646515	943.139038	1600.974854	1010.708008	10.271403
269.021606	974.889771	1641.313110	1044.492310	10.444193
269.396729	959.296875	1639.730835	1022.346008	9.266018
269.771790	940.088196	1627.188965	1022.458984	11.988167
270.146790	941.218262	1647.188477	1011.385742	9.939156
270.521790	962.799622	1651.369141	1015.453735	7.646884
270.896759	965.624390	1659.730225	1021.103149	7.992839
271.271667	974.776550	1703.457764	1034.436157	8.187340
271.646545	948.449585	1716.225952	1026.978760	10.228131
272.021423	952.178528	1781.422119	1023.815063	8.638781
272.396271	940.653198	1819.726196	1027.995483	9.935726
272.771027	959.974792	1864.244751	1033.419189	8.121955
273.145813	963.025757	1906.390625	1056.017334	9.857435
273.520538	980.539185	1935.881226	1056.808350	7.983441
273.895233	978.279175	1930.683838	1042.006470	6.691199
274.269897	959.296875	1881.080322	1036.356934	8.359887
274.644501	966.302368	1844.810181	1023.814819	6.546607
275.019135	987.657593	1842.324219	1055.791504	7.971987
275.393677	949.692383	1814.867554	1002.459473	6.099007
275.768250	948.110535	1814.076416	1013.984741	7.607021
276.142700	932.630859	1816.336304	1022.233032	10.139371
276.517212	955.907043	1854.640625	1030.933350	8.348003
276.891632	962.686523	1859.273193	1028.221558	7.309392
277.266022	954.099304	1873.623047	1030.255371	8.282121
277.640381	954.890137	1922.548218	1024.944824	7.239612
278.014740	981.443176	1929.779541	1037.825928	5.945438
278.389038	955.794128	1957.349609	1038.616699	8.269394
278.763336	954.890259	1966.727905	1031.159302	7.537676
279.137543	944.608032	1958.140625	1027.543701	8.182832
279.511780	949.918579	1956.219482	1043.588623	9.308353
279.885925	954.325195	1977.236328	1050.255127	9.378130
280.260101	956.020020	1952.491455	1026.526855	7.075651
280.634186	966.415161	1990.230469	1058.955200	9.038743
281.008301	985.171875	2048.533691	1063.474854	7.363719
281.382294	956.132935	2043.901001	1039.633667	7.676336
281.756348	970.144043	2131.017334	1050.028931	6.881448
282.130280	943.591125	2177.682861	1050.706909	8.679726
282.504272	971.386902	2266.381348	1077.711792	8.210452
282.878143	955.681152	2271.013916	1058.503174	7.817187
283.252014	970.708862	2323.780762	1084.717163	8.425886
283.625854	1001.555542	2400.162598	1116.580933	8.224282
283.999664	968.675171	2376.095947	1065.169800	6.856132
284.373444	962.121460	2407.733643	1059.294189	6.721909
284.747192	963.929565	2369.429199	1071.158447	7.629236
285.120941	983.476929	2396.885986	1110.366333	8.977543
285.494629	936.472534	2404.569580	1071.497070	9.197248
285.868256	956.811035	2435.642334	1070.819336	7.709352
286.241882	982.234070	2489.990967	1078.841797	6.407381
286.615448	966.867188	2542.645020	1081.214600	7.256569
286.988983	938.958374	2560.158691	1069.463379	8.049900
287.362518	985.171997	2609.875000	1100.535889	7.100614
287.736023	962.686646	2639.930664	1095.564453	7.922390
288.109467	959.070923	2646.145020	1077.033936	6.992166
288.482880	973.985718	2634.394043	1091.835815	7.097658
288.856262	979.748230	2638.461426	1112.513062	8.004086
289.229584	976.923340	2594.508301	1089.575928	6.964245
289.602936	966.302429	2591.457275	1075.564697	6.723191
289.976227	991.612183	2607.163086	1079.971680	5.469311
290.349457	958.618958	2641.625488	1088.332886	7.707274
290.722687	958.279968	2656.427490	1072.175171	6.707026
291.095886	949.579590	2738.120117	1073.418213	6.924004
291.469025	979.635132	2819.812744	1089.236938	5.956045
291.842133	954.438171	2826.140381	1099.745117	7.763359
292.215240	969.805054	2885.460693	1094.434570	6.505841
292.588287	952.743286	2847.043457	1081.101563	6.776026
292.961304	944.608032	2851.111572	1079.293701	7.064538
293.334320	964.607544	2858.003662	1100.084106	7.155215
293.707245	955.455078	2837.100586	1073.418091	6.269141
294.080170	968.110168	2845.235840	1091.496704	6.573163
294.453064	940.540344	2910.318848	1089.575928	7.566109
294.825897	965.963257	2972.690186	1089.801880	6.171175
295.198730	935.229675	3035.513428	1106.185669	8.139662
295.571533	950.596375	3084.099854	1101.214111	7.059644
295.944275	957.150024	3153.476318	1116.919922	7.274416
296.317017	985.171753	3263.416992	1133.303589	6.502015
296.689697	965.285339	3318.444092	1116.807007	6.439075
297.062317	957.827942	3324.093262	1122.230469	6.947764
297.434967	977.375488	3395.843262	1142.794922	6.839844
297.807526	958.279785	3477.196533	1123.586304	6.562603
298.180115	946.189819	3553.014160	1127.427979	6.952450
298.552612	969.805054	3544.087402	1135.224487	6.425847
298.925110	951.952332	3584.990234	1148.444580	7.462568
299.297546	987.205566	3542.393066	1144.941772	6.173175
299.669983	953.421265	3482.281738	1113.416992	6.326792
300.042358	981.217163	3408.949951	1140.987061	6.581033
300.414734	960.991699	3351.211426	1110.592163	6.258858
300.787048	943.139038	3292.794434	1103.925781	6.842993
301.159332	954.776978	3256.863770	1109.462402	6.719357
301.531616	935.455750	3216.525879	1091.609741	6.845646
301.903809	964.268372	3213.474609	1104.151733	6.219232
302.276031	961.556641	3203.757568	1093.756592	5.895990
302.648163	948.675659	3195.961426	1107.202637	7.054153
303.020294	941.218140	3193.475098	1081.779541	6.240913
303.392395	958.618835	3203.418701	1091.722778	5.929435
303.764435	947.658691	3132.233887	1086.751221	6.367029
304.136444	948.336548	3137.092773	1080.988525	6.060610
304.508453	962.121704	3169.859863	1112.513062	6.812010
304.880371	995.228149	3147.035645	1109.123413	5.293004
305.252319	970.257019	3102.856445	1086.751221	5.462545
305.624207	987.431641	3121.161133	1121.213379	6.269855
305.996033	990.595398	3127.488525	1118.275757	5.975047
306.367859	960.878723	3114.494629	1097.937378	6.364118
306.739655	948.901672	3090.539795	1085.169189	6.362770
307.111389	949.240601	3152.572021	1100.197021	6.851280
307.483124	965.172363	3168.504395	1083.700317	5.379487
307.854828	972.177734	3201.271729	1117.597656	6.523723
308.226471	952.291321	3211.327637	1098.050293	6.452263
308.598083	964.833496	3287.145264	1072.514282	4.636793
308.969666	968.788208	3297.766357	1117.145752	6.370070
309.341187	975.115723	3373.583496	1104.490723	5.394069
309.712738	960.426636	3454.485596	1102.343872	5.690211
310.084167	963.364563	3470.869141	1103.586792	5.592103
310.455658	949.692383	3522.393311	1112.287231	6.320006
310.827057	970.257019	3602.842529	1118.162720	5.618268
311.198456	971.951782	3592.673828	1124.603149	5.824782
311.569794	960.991699	3566.233887	1114.547119	5.894094
311.941132	958.166870	3599.566406	1118.614502	6.074342
312.312408	948.336548	3599.792236	1111.948120	6.170632
312.683655	962.234558	3590.865967	1129.122925	6.348869
313.054840	969.805054	3567.250732	1119.744507	5.772573
313.426056	969.127136	3574.595215	1104.716797	5.204042
313.797180	986.075867	3601.374268	1140.196045	5.893025
314.168304	967.206177	3578.210938	1124.151245	6.010907
314.539368	930.709961	3542.618652	1085.847168	5.939610
314.910431	943.477905	3573.126465	1102.343872	6.041338
315.281433	951.274536	3629.283203	1117.484741	6.206485
315.652435	958.392761	3729.732422	1118.953491	5.793614
316.023346	959.748840	3740.805908	1098.615112	4.993291
316.394287	949.805481	3747.132813	1110.479248	5.743831
316.765137	976.019531	3750.071045	1131.156860	5.592446
317.135986	980.539246	3708.489746	1124.151367	5.264470
317.506775	959.522949	3634.593262	1089.236938	4.848994
317.877594	990.821472	3617.871094	1137.371216	5.578492
318.248291	973.759766	3555.499512	1122.117554	5.746427
318.619019	988.900513	3542.166748	1113.869019	4.894457
318.989655	977.488403	3600.244629	1133.303467	5.940890
319.360321	966.302368	3605.441895	1103.699829	5.206146
319.730896	965.172485	3634.367676	1112.400146	5.515807
320.101501	949.127625	3658.209473	1102.005005	5.643144
320.472015	955.455200	3685.213623	1106.185547	5.521747
320.842529	965.963379	3713.349121	1087.880981	4.437586
321.213013	969.917847	3683.744629	1097.485352	4.700650
321.583466	950.031616	3671.089844	1115.338013	6.075078
321.953827	938.393372	3633.915527	1113.303955	6.488931
322.324188	963.590515	3670.412109	1116.693970	5.656208
