Jaz Data File
++++++++++++++++++++++++++++++++++++
Date: Mon Sep 17 15:00:11 2018
User: jaz
Dark Spectrum Present: Yes
Reference Spectrum Present: Yes
Processed Spectrum Present: Yes
Spectrometers: JAZA3098
Integration Time (usec): 232000 (JAZA3098)
Spectra Averaged: 20 (JAZA3098)
Boxcar Smoothing: 0 (JAZA3098)
Correct for Electrical Dark: No (JAZA3098)
Strobe/Lamp Enabled: Yes (JAZA3098)
Correct for Detector Non-linearity: No (JAZA3098)
Correct for Stray Light: No (JAZA3098)
Number of Pixels in Processed Spectrum: 2048
>>>>>Begin Processed Spectral Data<<<<<
W	D	R	S	P
190.313904	0.000000	0.000000	0.000000	0.000000
190.695511	0.000000	0.000000	0.000000	0.000000
191.077087	931.613953	922.574585	913.987183	195.000031
191.458633	937.941528	933.760742	920.992676	405.398712
191.840149	949.692566	965.172241	953.534302	24.817936
192.221634	959.183777	945.285950	944.269165	107.316139
192.603088	975.228638	984.154968	975.906616	7.595265
192.984528	1000.425598	1008.448059	1004.380371	49.296257
193.365921	995.792969	1019.521179	998.052856	9.524055
193.747284	988.222656	987.544617	986.414856	266.621643
194.128616	988.109558	1000.086731	986.414673	-14.150963
194.509918	992.629272	1016.244507	987.205872	-22.965687
194.891190	997.487976	1004.154480	985.510925	-179.660141
195.272446	994.663208	1002.572571	986.640808	-101.429153
195.653656	1029.125610	1043.475464	1022.119812	-48.821392
196.034836	1014.323608	1014.436646	986.979675	-24190.226563
196.416000	979.070435	991.838257	975.793579	-25.664951
196.797104	1010.707825	1010.255859	997.375000	2949.966309
197.178192	1007.431152	1025.509766	991.499390	-88.124916
197.559265	985.623718	1003.137512	979.409363	-35.482635
197.940292	971.161011	990.256470	962.686646	-44.378956
198.321304	975.906433	979.409363	961.895630	-399.973877
198.702271	979.748352	985.736816	964.607422	-252.834946
199.083221	983.477051	978.279419	978.957397	86.956009
199.464111	971.951965	967.997192	959.070679	325.714935
199.844986	977.714478	977.714478	969.917969	0.000000
200.225830	960.991821	986.188782	941.105286	-78.924347
200.606659	962.912476	1007.318054	958.505859	-9.923565
200.987427	1012.063843	1080.988525	1007.770142	-6.229555
201.368195	960.087708	998.956909	970.369934	26.453403
201.748917	984.832825	993.759277	988.222778	37.976494
202.129608	964.268372	989.239563	962.460632	-7.239299
202.510284	976.019531	998.617859	948.901672	-119.999405
202.890915	953.195190	1000.199829	965.285461	25.721443
203.271515	972.064819	995.341003	964.494446	-32.524117
203.652100	970.596008	999.069702	972.855774	7.936327
204.032623	969.692078	979.183289	940.201294	-310.716766
204.413147	961.895691	988.109680	951.048462	-41.379543
204.793625	970.708984	1001.216614	960.313660	-34.074509
205.174088	956.811035	986.075806	946.302856	-35.907265
205.554504	950.483398	972.403809	955.342163	22.165482
205.934906	949.918457	974.550476	926.981445	-93.118683
206.315247	957.375854	973.759766	934.664734	-138.618439
206.695587	958.844849	992.629211	957.375977	-4.347787
207.075882	972.742859	986.527710	960.765747	-86.886047
207.456146	939.975281	971.725891	936.472534	-11.032061
207.836380	965.737427	997.375000	976.923523	35.356998
208.216599	961.104614	995.679993	943.252075	-51.633678
208.596771	952.291504	966.980164	941.218079	-75.387581
208.976913	973.420715	1000.086731	974.211731	2.966381
209.357025	1026.300659	1039.746704	1007.205078	-142.016342
209.737106	963.703430	981.443054	958.505981	-29.298529
210.117157	967.319214	987.883606	959.748657	-36.813908
210.497177	971.499817	966.415344	951.952454	384.452118
210.877167	968.336121	984.606934	948.223633	-123.610832
211.257126	967.771301	988.335632	938.845398	-140.660553
211.637070	992.629272	1016.922546	970.143921	-92.557930
212.016968	964.607422	1000.538757	961.443665	-8.805009
212.396835	965.285278	984.606934	960.426636	-25.146099
212.776672	959.409973	976.923645	943.817017	-89.033051
213.156464	962.799500	985.510925	950.596497	-53.730679
213.536255	945.850891	981.104187	957.601929	33.333160
213.916000	962.912598	983.929016	967.432129	21.504765
214.295700	956.924011	980.426270	959.409790	10.576766
214.675400	965.172363	979.635254	951.500366	-94.531563
215.055038	945.624878	979.522339	949.466492	11.333043
215.434662	975.002625	982.347046	947.319702	-376.924469
215.814240	992.742310	1020.086121	981.443176	-41.322453
216.193787	960.878723	1002.233582	947.206726	-33.060196
216.573334	980.087280	994.437134	957.940918	-154.331619
216.952820	965.963257	995.002075	948.336731	-60.699875
217.332275	953.421204	976.810547	947.658691	-24.637341
217.711716	967.771179	1001.216675	958.279968	-28.378143
218.091125	952.404297	988.335632	947.884644	-12.578585
218.470505	1018.165344	1050.367798	1002.007629	-50.175415
218.849854	958.166992	996.018921	947.997742	-26.865871
219.229156	970.595886	985.397827	964.946411	-38.167122
219.608444	959.522827	982.460144	956.020203	-15.270419
219.987671	998.391968	1023.023926	978.731445	-79.817131
220.366898	963.364624	1008.109009	966.528320	7.070600
220.746094	990.143433	1010.481934	967.206177	-112.777512
221.125244	981.330200	1009.351868	980.539185	-2.822871
221.504364	961.104797	998.165894	962.460571	3.658213
221.883469	944.269043	1004.719360	943.817078	-0.747664
222.262512	948.675781	997.261902	949.579712	1.860471
222.641556	954.551147	973.872864	949.579590	-25.730413
223.020554	940.992065	996.019043	964.381470	42.505341
223.399521	958.618774	997.600891	951.500366	-18.260702
223.778473	965.850403	982.799133	943.026184	-134.666245
224.157364	953.421265	986.075806	949.579590	-11.764596
224.536240	967.093140	967.545105	948.675598	-4074.989990
224.915085	951.387390	984.154968	942.461121	-27.241163
225.293900	971.499817	983.250977	959.522766	-101.922287
225.672684	970.595886	997.148926	953.873230	-62.978313
226.051437	970.369995	1005.962219	967.545105	-7.936818
226.430161	938.506470	990.256470	935.116577	-6.550517
226.808838	944.268921	997.600891	947.319702	5.720361
227.187500	980.765137	1048.786011	990.256470	13.953559
227.566132	962.234680	1010.142883	957.150024	-10.613330
227.944717	969.240112	1019.521301	958.279785	-21.798067
228.323288	978.731262	1031.837280	970.143921	-16.170185
228.701813	951.839478	1022.458984	966.528198	20.799807
229.080307	953.986206	1021.894165	955.003113	1.497478
229.458786	972.855835	1043.814331	964.833374	-11.305850
229.837234	957.489075	1041.893555	953.647278	-4.551651
230.215637	945.285950	1037.938721	952.404480	7.683019
230.594009	949.692566	1062.344849	972.290894	20.060247
230.972351	942.009155	1049.915894	968.675171	24.712095
231.350662	969.014038	1039.972778	971.499878	3.503219
231.728958	938.054504	1049.125000	953.986206	14.343775
232.107193	966.641235	1053.644775	971.047974	5.065011
232.485413	952.065308	1036.469971	958.505981	7.630709
232.863602	1060.424072	1156.127808	1075.677979	15.938674
233.241760	957.828003	1050.706787	965.511353	8.272449
233.619873	942.913208	1041.667603	949.014648	6.178399
233.997986	988.674683	1057.260376	994.550171	8.566638
234.376038	968.223267	1055.113525	980.765015	14.434010
234.754074	966.641235	1070.254517	964.155396	-2.399152
235.132065	958.844849	1044.605225	970.934937	14.097522
235.510025	969.579102	1050.819824	985.736938	19.888840
235.887970	963.364563	1051.610962	972.403931	10.243327
236.265869	971.499817	1051.045898	974.550598	3.835238
236.643738	967.093262	1058.842285	980.539185	14.655113
237.021576	950.483582	1064.491821	965.059387	12.784870
237.399384	941.896118	1054.322510	966.415405	21.809191
237.777161	969.918091	1086.637939	1000.086609	25.846947
238.154892	954.890259	1066.525635	953.873230	-0.911027
238.532623	956.923950	1080.875610	965.285278	6.745636
238.910309	940.879211	1060.989136	973.533569	27.187061
239.287949	951.839355	1070.141479	964.155457	10.410719
239.665573	947.319702	1071.384277	974.324707	21.766893
240.043167	960.313660	1081.101563	976.358582	13.283550
240.420715	955.003113	1090.705811	972.516968	12.906048
240.798233	965.172363	1088.671875	967.884094	2.195742
241.175735	966.528320	1097.033447	959.748901	-5.194753
241.553207	944.381958	1097.937256	946.641724	1.471630
241.930634	944.720825	1092.513672	975.115601	20.565796
242.308014	963.364563	1141.777832	970.369995	3.926520
242.685394	951.726379	1151.269165	974.889648	11.608171
243.062729	969.014160	1189.234375	997.826965	13.083633
243.440033	970.031067	1200.985596	987.544739	7.583169
243.817307	977.036499	1228.894287	989.691528	5.024673
244.194534	971.161011	1214.318359	994.098267	9.433092
244.571747	982.346985	1238.046509	1021.328918	15.245212
244.948929	960.652710	1230.137085	993.872192	12.327053
245.326065	965.172485	1192.398071	989.465515	10.691151
245.703186	979.974426	1227.312256	997.826843	7.217827
246.080261	950.370605	1193.075928	974.098633	9.776476
246.457306	947.319702	1208.216797	973.194824	9.917750
246.834320	969.466125	1234.543701	986.527832	6.436496
247.211304	968.901184	1268.780151	997.374878	9.495062
247.588257	972.064758	1307.197388	1009.804016	11.260992
247.965195	971.612976	1356.235596	1027.317627	14.482937
248.342087	945.850891	1386.743164	1019.973267	16.811901
248.718933	950.935547	1401.771240	998.165894	10.476177
249.095764	939.297241	1419.171631	1004.154297	13.515424
249.472549	955.794067	1411.262451	1027.317627	15.703299
249.849319	951.839478	1370.020508	1000.538696	11.645487
250.226044	970.144043	1356.009521	1018.391418	12.503677
250.602737	954.212219	1328.439697	1019.069214	17.330902
250.979401	965.285339	1295.785034	1003.363464	11.521379
251.356033	979.409302	1306.519287	1012.176758	10.017260
251.732635	971.612976	1286.180908	1004.945313	10.596229
252.109207	967.658203	1280.757202	1012.176880	14.218722
252.485748	971.048035	1292.960327	1010.142944	12.144585
252.862244	949.127625	1293.751343	979.974304	8.950829
253.238724	962.347534	1301.660767	999.860840	11.055656
253.615158	942.800110	1297.932129	971.838684	8.176839
253.991577	962.573608	1315.897705	994.663208	9.082200
254.367950	955.455078	1317.705566	977.488586	6.082396
254.744308	986.979797	1334.880127	1042.684326	16.011635
255.120621	956.359009	1302.338623	1001.442688	13.030733
255.496902	958.505981	1272.395874	979.974304	6.839444
255.873154	953.195190	1272.734863	992.177368	12.199480
256.249390	946.867859	1259.514893	970.143921	7.444837
256.625549	956.697937	1287.762695	976.810547	6.075129
257.001709	992.403198	1324.598022	1019.860168	8.265322
257.377838	957.149902	1332.959229	1005.736328	12.928478
257.753937	955.568176	1321.095337	1011.385864	15.270462
258.129974	949.353699	1330.134399	989.917603	10.652825
258.506012	941.895996	1374.766113	988.561523	10.780492
258.881989	968.223145	1401.657959	1011.837891	10.062585
259.257935	962.799622	1420.527588	1022.345886	13.009094
259.633911	948.788696	1483.237915	994.324097	8.520061
260.009766	960.087708	1530.016357	1010.933899	8.921501
260.385651	1006.188293	1620.296265	1066.299561	9.788387
260.761475	950.144409	1634.759521	1019.973267	10.199725
261.137299	962.121582	1704.135986	1041.780518	10.735497
261.513062	939.862305	1729.333008	1039.407837	12.609148
261.888763	995.454102	1758.823975	1076.016846	10.553566
262.264496	957.941040	1707.186768	1021.329224	8.460266
262.640137	962.912476	1668.091797	1016.583374	7.610958
263.015808	950.596558	1592.500488	1008.900085	9.082906
263.391388	988.335632	1595.438232	1045.283325	9.380242
263.766998	993.307251	1572.161987	1056.130371	10.853003
264.142517	977.940430	1549.789917	1034.661865	9.918945
264.518036	954.890137	1505.610229	1005.284363	9.150606
264.893524	971.612915	1499.169678	1026.865723	10.473339
265.268951	983.815918	1536.004883	1039.859741	10.149392
265.644379	947.093628	1469.566040	989.013550	8.023376
266.019745	958.957886	1465.837280	996.922852	7.489941
266.395111	971.047852	1485.158813	1013.871582	8.329667
266.770386	977.714355	1519.734131	1032.967163	10.193873
267.145691	963.816589	1529.790161	1009.578125	8.085455
267.520966	970.369995	1560.975830	1016.131531	7.748236
267.896149	978.505371	1593.404541	1016.357544	6.155834
268.271362	969.917969	1588.432861	1024.266846	8.786996
268.646515	943.139038	1600.974854	1000.086731	8.656825
269.021606	974.889771	1641.313110	1024.379883	7.426228
269.396729	959.296875	1639.730835	1006.188293	6.891399
269.771790	940.088196	1627.188965	1030.594360	13.172182
270.146790	941.218262	1647.188477	1014.775696	10.419339
270.521790	962.799622	1651.369141	1022.007019	8.598609
270.896759	965.624390	1659.730225	1030.029419	9.278849
271.271667	974.776550	1703.457764	1020.764160	6.311074
271.646545	948.449585	1716.225952	1017.600403	9.006636
272.021423	952.178528	1781.422119	998.956848	5.641083
272.396271	940.653198	1819.726196	1014.662598	8.419027
272.771027	959.974792	1864.244751	1032.741333	8.046993
273.145813	963.025757	1906.390625	1035.678955	7.701495
273.520538	980.539185	1935.881226	1043.362549	6.576007
273.895233	978.279175	1930.683838	1050.480835	7.580986
274.269897	959.296875	1881.080322	1045.848145	9.389544
274.644501	966.302368	1844.810181	1034.323120	7.742760
275.019135	987.657593	1842.324219	1047.204102	6.967221
275.393677	949.692383	1814.867554	1029.012451	9.168094
275.768250	948.110535	1814.076416	1020.651184	8.376848
276.142700	932.630859	1816.336304	1022.459167	10.164960
276.517212	955.907043	1854.640625	1027.204590	7.933113
276.891632	962.686523	1859.273193	1052.627686	10.031507
277.266022	954.099304	1873.623047	1027.882568	8.024074
277.640381	954.890137	1922.548218	1050.706787	9.901912
278.014740	981.443176	1929.779541	1057.260376	7.994758
278.389038	955.794128	1957.349609	1044.153320	8.822196
278.763336	954.890259	1966.727905	1046.187256	9.022890
279.137543	944.608032	1958.140625	1040.424561	9.453719
279.511780	949.918579	1956.219482	1042.684326	9.218490
279.885925	954.325195	1977.236328	1059.407227	10.272840
280.260101	956.020020	1952.491455	1021.668091	6.588054
280.634186	966.415161	1990.230469	1034.775024	6.676972
281.008301	985.171875	2048.533691	1055.904419	6.651785
281.382294	956.132935	2043.901001	1049.124878	8.548876
281.756348	970.144043	2131.017334	1050.932861	6.959314
282.130280	943.591125	2177.682861	1049.350952	8.569851
282.504272	971.386902	2266.381348	1073.870117	7.913796
282.878143	955.681152	2271.013916	1061.667114	8.057730
283.252014	970.708862	2323.780762	1071.723267	7.465561
283.625854	1001.555542	2400.162598	1099.632080	7.012444
283.999664	968.675171	2376.095947	1065.282715	6.864155
284.373444	962.121460	2407.733643	1062.231934	6.925127
284.747192	963.929565	2369.429199	1071.384277	7.645303
285.120941	983.476929	2396.885986	1089.575928	7.506602
285.494629	936.472534	2404.569580	1059.972046	8.412217
285.868256	956.811035	2435.642334	1080.197510	8.343513
286.241882	982.234070	2489.990967	1070.141357	5.830336
286.615448	966.867188	2542.645020	1098.050415	8.324983
286.988983	938.958374	2560.158691	1062.458008	7.617790
287.362518	985.171997	2609.875000	1104.264893	7.330133
287.736023	962.686646	2639.930664	1073.418213	6.601995
288.109467	959.070923	2646.145020	1076.355835	6.951972
288.482880	973.985718	2634.394043	1088.784912	6.913913
288.856262	979.748230	2638.461426	1109.010376	7.792918
289.229584	976.923340	2594.508301	1068.333618	5.651034
289.602936	966.302429	2591.457275	1085.621216	7.341995
289.976227	991.612183	2607.163086	1092.400635	6.238643
290.349457	958.618958	2641.625488	1078.728760	7.136621
290.722687	958.279968	2656.427490	1080.649536	7.206062
291.095886	949.579590	2738.120117	1090.479736	7.877940
291.469025	979.635132	2819.812744	1103.247803	6.717432
291.842133	954.438171	2826.140381	1096.694214	7.600357
292.215240	969.805054	2885.460693	1110.592529	7.349310
292.588287	952.743286	2847.043457	1078.163696	6.620936
292.961304	944.608032	2851.111572	1103.360962	8.326915
293.334320	964.607544	2858.003662	1095.903320	6.934406
293.707245	955.455078	2837.100586	1097.598145	7.554190
294.080170	968.110168	2845.235840	1094.886475	6.753746
294.453064	940.540344	2910.318848	1098.615112	8.025002
294.825897	965.963257	2972.690186	1091.496704	6.255632
295.198730	935.229675	3035.513428	1104.377808	8.053585
295.571533	950.596375	3084.099854	1097.033447	6.863690
295.944275	957.150024	3153.476318	1116.580811	7.258976
296.317017	985.171753	3263.416992	1131.721558	6.432574
296.689697	965.285339	3318.444092	1104.716919	5.925294
297.062317	957.827942	3324.093262	1124.828979	7.057579
297.434967	977.375488	3395.843262	1132.738647	6.424033
297.807526	958.279785	3477.196533	1118.275635	6.351772
298.180115	946.189819	3553.014160	1125.620361	6.883109
298.552612	969.805054	3544.087402	1120.987549	5.872802
298.925110	951.952332	3584.990234	1136.693359	7.016269
299.297546	987.205566	3542.393066	1135.450439	5.801722
299.669983	953.421265	3482.281738	1127.654053	6.889775
300.042358	981.217163	3408.949951	1148.331421	6.883552
300.414734	960.991699	3351.211426	1112.739136	6.348681
300.787048	943.139038	3292.794434	1093.530640	6.400581
301.159332	954.776978	3256.863770	1101.440063	6.370875
301.531616	935.455750	3216.525879	1096.355347	7.053689
301.903809	964.268372	3213.474609	1121.665405	6.997892
302.276031	961.556641	3203.757568	1103.812744	6.344485
302.648163	948.675659	3195.961426	1121.439331	7.687660
303.020294	941.218140	3193.475098	1099.067139	7.008482
303.392395	958.618835	3203.418701	1101.213867	6.352238
303.764435	947.658691	3132.233887	1118.501709	7.820423
304.136444	948.336548	3137.092773	1108.671509	7.325391
304.508453	962.121704	3169.859863	1116.806763	7.006495
304.880371	995.228149	3147.035645	1103.699707	5.040950
305.252319	970.257019	3102.856445	1079.180664	5.107553
305.624207	987.431641	3121.161133	1110.931274	5.787971
305.996033	990.595398	3127.488525	1110.366333	5.604910
306.367859	960.878723	3114.494629	1071.497192	5.136406
306.739655	948.901672	3090.539795	1063.474854	5.349792
307.111389	949.240601	3152.572021	1097.372314	6.723079
307.483124	965.172363	3168.504395	1087.090088	5.533334
307.854828	972.177734	3201.271729	1115.563843	6.432484
308.226471	952.291321	3211.327637	1108.445313	6.912416
308.598083	964.833496	3287.145264	1108.219482	6.174278
308.969666	968.788208	3297.766357	1112.400146	6.166307
309.341187	975.115723	3373.583496	1110.705322	5.653176
309.712738	960.426636	3454.485596	1124.490234	6.578176
310.084167	963.364563	3470.869141	1105.959595	5.686730
310.455658	949.692383	3522.393311	1120.648560	6.645008
310.827057	970.257019	3602.842529	1149.800171	6.820031
311.198456	971.951782	3592.673828	1128.557983	5.975689
311.569794	960.991699	3566.233887	1113.982178	5.872409
311.941132	958.166870	3599.566406	1123.247314	6.249734
312.312408	948.336548	3599.792236	1090.479736	5.360950
312.683655	962.234558	3590.865967	1114.885986	5.807259
313.054840	969.805054	3567.250732	1120.535522	5.803027
313.426056	969.127136	3574.595215	1106.411743	5.269096
313.797180	986.075867	3601.374268	1155.449829	6.476277
314.168304	967.206177	3578.210938	1117.258789	5.746930
314.539368	930.709961	3542.618652	1111.044312	6.904313
314.910431	943.477905	3573.126465	1100.084106	5.955404
315.281433	951.274536	3629.283203	1107.428467	5.830972
315.652435	958.392761	3729.732422	1114.998779	5.650914
316.023346	959.748840	3740.805908	1114.208130	5.553977
316.394287	949.805481	3747.132813	1117.484863	5.994271
316.765137	976.019531	3750.071045	1138.275146	5.849049
317.135986	980.539246	3708.489746	1131.947510	5.550257
317.506775	959.522949	3634.593262	1108.106567	5.554382
317.877594	990.821472	3617.871094	1138.840088	5.634405
318.248291	973.759766	3555.499512	1131.608643	6.114051
318.619019	988.900513	3542.166748	1110.253296	4.752845
318.989655	977.488403	3600.244629	1115.563843	5.264516
319.360321	966.302368	3605.441895	1105.959717	5.291776
319.730896	965.172485	3634.367676	1110.027100	5.426902
320.101501	949.127625	3658.209473	1096.129272	5.426254
320.472015	955.455200	3685.213623	1124.942139	6.208862
320.842529	965.963379	3713.349121	1101.891968	4.947561
321.213013	969.917847	3683.744629	1093.078613	4.538270
321.583466	950.031616	3671.089844	1109.349365	5.854992
321.953827	938.393372	3633.915527	1096.129395	5.851780
322.324188	963.590515	3670.412109	1106.976563	5.297211
