Jaz Data File
++++++++++++++++++++++++++++++++++++
Date: Mon Apr 25 12:37:18 2016
User: jaz
Dark Spectrum Present: Yes
Reference Spectrum Present: Yes
Processed Spectrum Present: Yes
Spectrometers: JAZA3098
Integration Time (usec): 926000 (JAZA3098)
Spectra Averaged: 1 (JAZA3098)
Boxcar Smoothing: 0 (JAZA3098)
Correct for Electrical Dark: No (JAZA3098)
Strobe/Lamp Enabled: Yes (JAZA3098)
Correct for Detector Non-linearity: No (JAZA3098)
Correct for Stray Light: No (JAZA3098)
Number of Pixels in Processed Spectrum: 2048
>>>>>Begin Processed Spectral Data<<<<<
W	D	R	S	P
190.313904	0.000000	0.000000	0.000000	0.000000
190.695511	0.000000	0.000000	0.000000	0.000000
191.077087	1247.424805	1215.787231	1197.708618	157.142853
191.458633	1213.527466	1204.488159	1220.306885	-74.999321
191.840149	1254.204346	1199.968506	1197.708618	104.166779
192.221634	1288.101685	1276.802612	1256.464111	280.001526
192.603088	1312.959839	1333.298340	1283.582031	-144.444305
192.984528	1383.014526	1401.093140	1369.455566	-75.000000
193.365921	1373.975220	1367.195679	1335.558105	566.662476
193.747284	1263.243652	1331.038452	1285.841919	33.333332
194.128616	1315.219727	1267.763306	1240.645386	157.142776
194.509918	1385.274292	1346.857300	1340.077759	117.647247
194.891190	1349.117065	1306.180420	1319.739380	68.421005
195.272446	1367.195679	1312.959839	1340.077759	50.000000
195.653656	1509.564819	1475.667480	1486.966553	66.666786
196.034836	1383.014526	1376.234985	1387.534180	-66.666069
196.416000	1346.857300	1337.817993	1333.298340	150.000000
196.797104	1337.817993	1362.676025	1353.636719	63.636276
197.178192	1353.636719	1376.234985	1421.431519	300.000000
197.559265	1317.479492	1337.817993	1358.156372	199.999405
197.940292	1342.337646	1317.479492	1317.479492	100.000000
198.321304	1324.259033	1306.180420	1299.400879	137.500336
198.702271	1303.920532	1360.416260	1321.999146	31.999966
199.083221	1312.959839	1344.597412	1290.361572	-71.428574
199.464111	1358.156372	1342.337646	1297.140991	385.716156
199.844986	1303.920532	1362.676025	1364.935913	103.846260
200.225830	1358.156372	1247.424805	1380.754639	-20.408152
200.606659	1312.959839	1342.337646	1283.582031	-100.000000
200.987427	1432.730713	1473.407593	1405.612793	-66.666664
201.368195	1373.975220	1383.014526	1331.038452	-475.000671
201.748917	1364.935913	1373.975220	1335.558105	-325.000671
202.129608	1351.376953	1283.582031	1326.518799	36.666691
202.510284	1389.793945	1369.455566	1360.416260	144.444580
202.890915	1317.479492	1263.243652	1344.597412	-50.000000
203.271515	1333.298340	1364.935913	1303.920532	-92.857338
203.652100	1333.298340	1367.195679	1319.739380	-40.000072
204.032623	1276.802612	1290.361572	1328.778687	383.333771
204.413147	1306.180420	1355.896606	1333.298340	54.545456
204.793625	1364.935913	1412.392212	1324.259033	-85.714394
205.174088	1315.219727	1297.140991	1274.542725	224.999161
205.554504	1294.881226	1308.440186	1315.219727	150.000458
205.934906	1260.983765	1333.298340	1342.337646	112.499977
206.315247	1401.093140	1315.219727	1251.944458	173.684357
206.695587	1319.739380	1236.125732	1270.023071	59.459560
207.075882	1337.817993	1412.392212	1319.739380	-24.242445
207.456146	1310.700073	1274.542725	1242.905151	187.499710
207.836380	1331.038452	1394.313599	1297.140991	-53.571526
208.216599	1310.700073	1324.259033	1299.400879	-83.333786
208.596771	1279.062378	1220.306885	1249.684692	49.999897
208.976913	1380.754639	1385.274292	1437.250366	1250.001343
209.357025	1493.746094	1480.187134	1496.005859	-16.666216
209.737106	1349.117065	1326.518799	1333.298340	69.999733
210.117157	1385.274292	1312.959839	1335.558105	68.750000
210.497177	1315.219727	1337.817993	1362.676025	209.999725
210.877167	1288.101685	1369.455566	1353.636719	80.555511
211.257126	1233.865845	1294.881226	1328.778687	155.555603
211.637070	1328.778687	1385.274292	1401.093140	128.000137
212.016968	1380.754639	1294.881226	1328.778687	60.526245
212.396835	1331.038452	1290.361572	1358.156372	-66.666664
212.776672	1204.488159	1335.558105	1335.558105	100.000000
213.156464	1301.660645	1306.180420	1299.400879	-49.997299
213.536255	1270.023071	1270.023071	1373.975220	0.000000
213.916000	1288.101685	1310.700073	1353.636719	289.998718
214.295700	1276.802612	1358.156372	1310.700073	41.666740
214.675400	1301.660645	1367.195679	1321.999146	31.034548
215.055038	1213.527466	1355.896606	1331.038452	82.539650
215.434662	1396.573486	1394.313599	1312.959839	3699.902832
215.814240	1335.558105	1419.171753	1428.211060	110.810806
216.193787	1301.660645	1401.093140	1306.180420	4.545572
216.573334	1344.597412	1392.053833	1383.014526	80.952408
216.952820	1333.298340	1355.896606	1279.062378	-240.000534
217.332275	1231.606079	1383.014526	1260.983765	19.402937
217.711716	1444.029785	1514.084473	1453.069214	12.903389
218.091125	1281.322266	1358.156372	1285.841919	5.882353
218.470505	1462.108521	1554.761353	1421.431519	-43.902599
218.849854	1353.636719	1392.053833	1285.841919	-176.470306
219.229156	1410.132446	1367.195679	1364.935913	105.263008
219.608444	1412.392212	1383.014526	1274.542725	469.231964
219.987671	1475.667480	1538.942627	1376.234985	-157.143051
220.366898	1439.510132	1362.676025	1233.865845	267.647125
220.746094	1446.289673	1421.431519	1355.896606	363.635468
221.125244	1419.171753	1446.289673	1407.872559	-41.666893
221.504364	1358.156372	1396.573486	1355.896606	-5.882185
221.883469	1321.999146	1270.023071	1231.606079	173.912842
222.262512	1317.479492	1385.274292	1349.117065	46.666668
222.641556	1272.282959	1355.896606	1342.337646	83.783798
223.020554	1364.935913	1362.676025	1303.920532	2699.929688
223.399521	1315.219727	1281.322266	1371.715332	-166.666183
223.778473	1324.259033	1371.715332	1279.062378	-95.238472
224.157364	1297.140991	1290.361572	1242.905151	800.007202
224.536240	1254.204346	1301.660645	1258.723999	9.523822
224.915085	1240.645386	1337.817993	1249.684692	9.302320
225.293900	1299.400879	1306.180420	1326.518799	399.996399
225.672684	1324.259033	1425.951172	1310.700073	-13.333342
226.051437	1308.440186	1396.573486	1355.896606	53.846188
226.430161	1288.101685	1301.660645	1260.983765	-200.000000
226.808838	1344.597412	1299.400879	1297.140991	105.000137
227.187500	1459.848633	1493.746094	1387.534180	-213.332947
227.566132	1283.582031	1430.470825	1276.802612	-4.615341
227.944717	1405.612793	1367.195679	1392.053833	35.294060
228.323288	1346.857300	1446.289673	1342.337646	-4.545455
228.701813	1383.014526	1317.479492	1310.700073	110.344727
229.080307	1227.086426	1337.817993	1281.322266	48.979565
229.458786	1285.841919	1319.739380	1324.259033	113.333313
229.837234	1301.660645	1491.486206	1340.077759	20.238115
230.215637	1294.881226	1383.014526	1274.542725	-23.076977
230.594009	1260.983765	1439.510132	1333.298340	40.506382
230.972351	1319.739380	1482.446899	1378.494873	36.111111
231.350662	1290.361572	1514.084473	1355.896606	29.292948
231.728958	1321.999146	1509.564819	1312.959839	-4.819275
232.107193	1358.156372	1507.305054	1337.817993	-13.636312
232.485413	1258.723999	1423.691406	1303.920532	27.397249
232.863602	1258.723999	1432.730713	1294.881226	20.779213
233.241760	1310.700073	1484.706787	1288.101685	-12.987079
233.619873	1281.322266	1437.250366	1247.424805	-21.739161
233.997986	1387.534180	1473.407593	1373.975220	-15.789474
234.376038	1333.298340	1464.368286	1416.911865	63.793056
234.754074	1387.534180	1491.486206	1392.053833	4.347826
235.132065	1321.999146	1439.510132	1358.156372	30.769230
235.510025	1333.298340	1505.045166	1394.313599	35.526279
235.887970	1308.440186	1468.887939	1326.518799	11.267601
236.265869	1328.778687	1480.187134	1369.455566	26.865662
236.643738	1378.494873	1425.951172	1312.959839	-138.095551
237.021576	1285.841919	1453.069214	1355.896606	41.891899
237.399384	1224.826538	1326.518799	1333.298340	106.666725
237.777161	1369.455566	1532.163086	1396.573486	16.666666
238.154892	1331.038452	1414.652100	1288.101685	-51.351387
238.532623	1267.763306	1471.147827	1303.920532	17.777767
238.910309	1315.219727	1507.305054	1353.636719	19.999962
239.287949	1267.763306	1434.990479	1303.920532	21.621622
239.665573	1380.754639	1401.093140	1394.313599	66.666466
240.043167	1319.739380	1547.981934	1326.518799	2.970269
240.420715	1294.881226	1475.667480	1306.180420	6.250030
240.798233	1360.416260	1462.108521	1355.896606	-4.444442
241.175735	1321.999146	1439.510132	1353.636719	26.923077
241.553207	1301.660645	1491.486206	1340.077759	20.238115
241.930634	1308.440186	1486.966553	1394.313599	48.101250
242.308014	1349.117065	1599.958008	1326.518799	-9.009003
242.685394	1319.739380	1602.217773	1258.723999	-21.600018
243.062729	1392.053833	1760.405762	1380.754639	-3.067500
243.440033	1272.282959	1647.414307	1321.999146	13.253008
243.817307	1303.920532	1810.121948	1387.534180	16.517860
244.194534	1355.896606	1785.263794	1410.132446	12.631576
244.571747	1364.935913	1807.862061	1351.376953	-3.061224
244.948929	1326.518799	1733.287720	1369.455566	10.555568
245.326065	1299.400879	1771.704834	1394.313599	20.095686
245.703186	1267.763306	1726.508301	1430.470825	35.467968
246.080261	1299.400879	1699.390381	1328.778687	7.344645
246.457306	1233.865845	1633.855347	1324.259033	22.598890
246.834320	1283.582031	1764.925415	1491.486206	43.192486
247.211304	1317.479492	1801.082642	1315.219727	-0.467277
247.588257	1324.259033	1801.082642	1437.250366	23.696672
247.965195	1405.612793	2002.207275	1410.132446	0.757575
248.342087	1310.700073	2112.938721	1414.652100	12.957744
248.718933	1281.322266	2067.742188	1444.029785	20.689650
249.095764	1274.542725	2063.222656	1367.195679	11.747852
249.472549	1383.014526	2171.694336	1421.431519	4.871050
249.849319	1267.763306	2081.301270	1416.911865	18.333324
250.226044	1355.896606	1972.829468	1321.999146	-5.494514
250.602737	1238.385498	1966.050049	1373.975220	18.633547
250.979401	1288.101685	1970.569702	1389.793945	14.900663
251.356033	1310.700073	1911.814209	1448.549561	22.932331
251.732635	1319.739380	1825.940674	1353.636719	6.696415
252.109207	1342.337646	1875.656860	1416.911865	13.983036
252.485748	1337.817993	1724.248413	1364.935913	7.017543
252.862244	1270.023071	1900.515015	1355.896606	13.620085
253.238724	1360.416260	1880.176514	1328.778687	-6.086955
253.615158	1247.424805	1807.862061	1355.896606	19.354853
253.991577	1290.361572	1832.720215	1371.715332	14.999993
254.367950	1340.077759	1889.215942	1303.920532	-6.584359
254.744308	1423.691406	1929.892822	1532.163086	21.428560
255.120621	1349.117065	1848.538940	1378.494873	5.882363
255.496902	1290.361572	1794.303101	1373.975220	16.591934
255.873154	1328.778687	1728.768066	1303.920532	-6.214704
256.249390	1337.817993	1755.886108	1346.857300	2.162161
256.625549	1353.636719	1721.988647	1355.896606	0.613513
257.001709	1450.809326	1844.019287	1437.250366	-3.448275
257.377838	1312.959839	1778.484375	1416.911865	22.330086
257.753937	1292.621338	1769.445068	1267.763306	-5.213254
258.129974	1312.959839	1771.704834	1270.023071	-9.359615
258.506012	1340.077759	1830.460327	1283.582031	-11.520745
258.881989	1369.455566	1929.892822	1342.337646	-4.838707
259.257935	1328.778687	1988.648315	1448.549561	18.150688
259.633911	1317.479492	2004.467041	1355.896606	5.592112
260.009766	1319.739380	2180.733643	1428.211060	12.598421
260.385651	1416.911865	2375.078857	1466.628174	5.188689
260.761475	1308.440186	2397.677002	1376.234985	6.224064
261.137299	1326.518799	2582.982910	1401.093140	5.935255
261.513062	1240.645386	2573.943604	1396.573486	11.694916
261.888763	1425.951172	2711.793213	1545.722046	9.314587
262.264496	1310.700073	2528.747070	1500.525513	15.584410
262.640137	1297.140991	2454.172852	1430.470825	11.523437
263.015808	1258.723999	2325.362549	1351.376953	8.686443
263.391388	1383.014526	2298.244629	1473.407593	9.876540
263.766998	1392.053833	2228.189941	1518.604126	15.135131
264.142517	1416.911865	2176.214111	1441.770020	3.273815
264.518036	1258.723999	2110.678955	1380.754639	14.323603
264.893524	1369.455566	2020.285889	1367.195679	-0.347231
265.268951	1394.313599	2169.434570	1403.352905	1.166180
265.644379	1292.621338	2018.026001	1349.117065	7.788167
266.019745	1231.606079	1975.089355	1326.518799	12.765952
266.395111	1315.219727	1999.947388	1405.612793	13.201317
266.770386	1299.400879	2176.214111	1457.588867	18.041241
267.145691	1233.865845	2036.104736	1412.392212	22.253517
267.520966	1297.140991	2151.355957	1335.558105	4.497359
267.896149	1310.700073	2300.504395	1396.573486	8.675797
268.271362	1283.582031	2210.111328	1353.636719	7.560979
268.646515	1251.944458	2284.685791	1360.416260	10.503288
269.021606	1326.518799	2377.338623	1387.534180	5.806455
269.396729	1317.479492	2286.945557	1335.558105	1.864801
269.771790	1290.361572	2259.827637	1373.975220	8.624711
270.146790	1306.180420	2284.685791	1450.809326	14.780594
270.521790	1450.809326	2377.338623	1547.981934	10.487807
270.896759	1303.920532	2309.543701	1373.975220	6.966296
271.271667	1353.636719	2347.960938	1453.069214	10.000008
271.646545	1281.322266	2318.583252	1297.140991	1.525048
272.021423	1335.558105	2431.574463	1394.313599	5.360823
272.396271	1231.606079	2643.998291	1403.352905	12.159995
272.771027	1294.881226	2666.596680	1416.911865	8.896207
273.145813	1310.700073	2766.029053	1430.470825	8.229806
273.520538	1401.093140	2763.769287	1559.281006	11.608618
273.895233	1283.582031	2829.304199	1444.029785	10.380116
274.269897	1288.101685	2668.856445	1477.927246	13.747956
274.644501	1376.234985	2573.943604	1444.029785	5.660375
275.019135	1337.817993	2549.085449	1484.706787	12.126867
275.393677	1251.944458	2598.801758	1328.778687	5.704704
275.768250	1290.361572	2576.203369	1410.132446	9.314589
276.142700	1258.723999	2488.070313	1396.573486	11.213235
276.517212	1317.479492	2474.511230	1337.817993	1.757817
276.891632	1362.676025	2619.140137	1326.518799	-2.877697
277.266022	1265.503418	2693.714600	1430.470825	11.550632
277.640381	1351.376953	2668.856445	1387.534180	2.744424
278.014740	1335.558105	2727.611816	1439.510132	7.467530
278.389038	1380.754639	2668.856445	1421.431519	3.157893
278.763336	1299.400879	2634.958984	1416.911865	8.798643
279.137543	1355.896606	2747.950439	1380.754639	1.785709
279.511780	1272.282959	2682.415283	1369.455566	6.891027
279.885925	1256.464111	2772.808594	1516.344360	17.138601
280.260101	1233.865845	2723.092285	1421.431519	12.594839
280.634186	1301.660645	2700.493896	1568.320313	19.063005
281.008301	1416.911865	2815.745117	1421.431519	0.323102
281.382294	1238.385498	2725.352051	1450.809326	14.285717
281.756348	1337.817993	2901.618652	1520.864014	11.705202
282.130280	1265.503418	2940.035645	1441.770020	10.526319
282.504272	1355.896606	3161.498779	1511.824707	8.635795
282.878143	1288.101685	3231.553467	1480.187134	9.883726
283.252014	1299.400879	3263.191162	1505.045166	10.471805
283.625854	1462.108521	3362.623535	1547.981934	4.518428
283.999664	1242.905151	3369.403076	1394.313599	7.120084
284.373444	1310.700073	3382.961914	1459.848633	7.197381
284.747192	1279.062378	3265.450928	1441.770020	8.191129
285.120941	1380.754639	3421.378906	1464.368286	4.097455
285.494629	1285.841919	3459.796143	1444.029785	7.276505
285.868256	1297.140991	3516.291748	1457.588867	7.230147
286.241882	1274.542725	3545.669434	1498.265747	9.850750
286.615448	1369.455566	3669.959961	1453.069214	3.634579
286.988983	1267.763306	3658.660889	1421.431519	6.427219
287.362518	1407.872559	3825.888184	1545.722046	5.700934
287.736023	1367.195679	3828.147949	1439.510132	2.938475
288.109467	1285.841919	3803.289795	1473.407593	7.450628
288.482880	1371.715332	3929.840332	1527.643433	6.095406
288.856262	1437.250366	3841.707031	1543.462280	4.417294
289.229584	1267.763306	3701.597656	1505.045166	9.749302
289.602936	1279.062378	3735.495117	1477.927246	8.095677
289.976227	1315.219727	3658.660889	1455.328979	5.978783
290.349457	1294.881226	3701.597656	1446.289673	6.291080
290.722687	1301.660645	3846.226563	1425.951172	4.884547
291.095886	1319.739380	3850.746338	1489.226440	6.696428
291.469025	1260.983765	3841.707031	1446.289673	7.180387
291.842133	1337.817993	4060.910156	1448.549561	4.066391
292.215240	1401.093140	4069.949463	1577.359619	6.604569
292.588287	1283.582031	4042.831543	1466.628174	6.633911
292.961304	1265.503418	3891.423096	1466.628174	7.659212
293.334320	1340.077759	4081.248779	1559.281006	7.996701
293.707245	1340.077759	4006.674316	1421.431519	3.050846
294.080170	1335.558105	3959.218018	1453.069214	4.478900
294.453064	1285.841919	3925.320557	1500.525513	8.133561
294.825897	1297.140991	3993.115479	1466.628174	6.286676
295.198730	1283.582031	4196.500000	1468.887939	6.361522
295.571533	1247.424805	4399.884277	1455.328979	6.594983
295.944275	1281.322266	4499.316895	1523.123779	7.514043
296.317017	1444.029785	4607.788574	1611.257080	5.285716
296.689697	1315.219727	4616.827637	1491.486206	5.338807
297.062317	1281.322266	4684.622559	1450.809326	4.980080
297.434967	1367.195679	4881.227539	1496.005859	3.665595
297.807526	1297.140991	4856.369629	1457.588867	4.507940
298.180115	1344.597412	5021.336914	1502.785400	4.302399
298.552612	1288.101685	5037.155762	1518.604126	6.148283
298.925110	1310.700073	5150.146973	1557.021240	6.415538
299.297546	1446.289673	4982.919922	1579.619507	3.769968
299.669983	1358.156372	4951.282227	1577.359619	6.100628
300.042358	1385.274292	4856.369629	1622.556274	6.835940
300.414734	1414.652100	4655.245117	1505.045166	2.789399
300.787048	1290.361572	4427.002441	1484.706787	6.195966
301.159332	1292.621338	4406.664063	1527.643433	7.547170
301.531616	1256.464111	4302.711914	1505.045166	8.160237
301.903809	1319.739380	4420.222656	1570.580200	8.090378
302.276031	1247.424805	4370.506836	1496.005859	7.959479
302.648163	1308.440186	4295.932129	1462.108521	5.143724
303.020294	1270.023071	4332.089355	1480.187134	6.863472
303.392395	1328.778687	4343.388672	1545.722046	7.196399
303.764435	1272.282959	4282.373535	1545.722046	9.084082
304.136444	1310.700073	4117.405762	1511.824707	7.165862
304.508453	1380.754639	4221.357910	1511.824707	4.614163
304.880371	1394.313599	4124.185547	1525.383667	4.801326
305.252319	1263.243652	4121.925781	1502.785400	8.379447
305.624207	1446.289673	4198.759766	1588.658813	5.172413
305.996033	1265.503418	4246.216309	1511.824707	8.263838
306.367859	1186.409546	4210.059082	1468.887939	9.342299
306.739655	1249.684692	4214.578613	1444.029785	6.554875
307.111389	1310.700073	4187.460449	1444.029785	4.634717
307.483124	1256.464111	4149.043457	1468.887939	7.343751
307.854828	1279.062378	4205.539063	1588.658813	10.579153
308.226471	1279.062378	4327.569824	1473.407593	6.375094
308.598083	1251.944458	4356.947754	1459.848633	6.695779
308.969666	1292.621338	4314.010742	1502.785400	6.955875
309.341187	1301.660645	4377.286133	1541.202393	7.788391
309.712738	1285.841919	4549.033203	1505.045166	6.717450
310.084167	1288.101685	4723.039551	1509.564819	6.447369
310.455658	1364.935913	4849.589844	1520.864014	4.474709
310.827057	1371.715332	4845.070313	1618.036621	7.091740
311.198456	1279.062378	4946.762695	1486.966553	5.668516
311.569794	1294.881226	4917.384766	1437.250366	3.930131
311.941132	1222.566772	4845.070313	1471.147827	6.862134
312.312408	1270.023071	5014.557617	1516.344360	6.578155
312.683655	1310.700073	4840.550781	1545.722046	6.658128
313.054840	1247.424805	4946.762695	1507.305054	7.025048
313.426056	1272.282959	4741.118164	1559.281006	8.273614
313.797180	1392.053833	4822.472168	1518.604126	3.689063
314.168304	1369.455566	4698.181641	1482.446899	3.394432
314.539368	1310.700073	4655.245117	1419.171753	3.243242
314.910431	1340.077759	4578.410645	1493.746094	4.745291
315.281433	1333.298340	4768.236328	1541.202393	6.052629
315.652435	1373.975220	4935.463379	1520.864014	4.124365
316.023346	1227.086426	4908.345703	1534.422974	8.348680
316.394287	1272.282959	4811.172852	1446.289673	4.916986
316.765137	1242.905151	4752.417480	1568.320313	9.272376
317.135986	1342.337646	4872.188477	1588.658813	6.978231
317.506775	1204.488159	4621.347656	1525.383667	9.391534
317.877594	1453.069214	4750.157715	1719.728760	8.087729
318.248291	1346.857300	4488.017578	1545.722046	6.330933
318.619019	1344.597412	4539.993652	1541.202393	6.152758
