Jaz Data File
++++++++++++++++++++++++++++++++++++
Date: Mon Apr 25 12:43:55 2016
User: jaz
Dark Spectrum Present: Yes
Reference Spectrum Present: Yes
Processed Spectrum Present: Yes
Spectrometers: JAZA3098
Integration Time (usec): 938000 (JAZA3098)
Spectra Averaged: 1 (JAZA3098)
Boxcar Smoothing: 0 (JAZA3098)
Correct for Electrical Dark: No (JAZA3098)
Strobe/Lamp Enabled: Yes (JAZA3098)
Correct for Detector Non-linearity: No (JAZA3098)
Correct for Stray Light: No (JAZA3098)
Number of Pixels in Processed Spectrum: 2048
>>>>>Begin Processed Spectral Data<<<<<
W	D	R	S	P
190.313904	0.000000	0.000000	0.000000	0.000000
190.695511	0.000000	0.000000	0.000000	0.000000
191.077087	1114.094971	1132.173584	1125.394165	62.500340
191.458633	1211.267578	1175.110352	1177.370239	93.749832
191.840149	1240.645386	1163.811279	1184.149658	73.529488
192.221634	1215.787231	1145.732544	1211.267578	6.451607
192.603088	1297.140991	1249.684692	1279.062378	38.095287
192.984528	1324.259033	1306.180420	1346.857300	-125.000000
193.365921	1331.038452	1294.881226	1351.376953	-56.250168
193.747284	1209.007813	1254.204346	1236.125732	60.000000
194.128616	1319.739380	1303.920532	1279.062378	257.142639
194.509918	1303.920532	1346.857300	1317.479492	31.578903
194.891190	1281.322266	1267.763306	1306.180420	-183.333786
195.272446	1274.542725	1260.983765	1272.282959	16.666216
195.653656	1464.368286	1367.195679	1398.833252	67.441879
196.034836	1272.282959	1283.582031	1349.117065	680.003662
196.416000	1236.125732	1222.566772	1254.204346	-133.333328
196.797104	1326.518799	1315.219727	1267.763306	520.002808
197.178192	1317.479492	1396.573486	1333.298340	20.000061
197.559265	1308.440186	1258.723999	1301.660645	13.636486
197.940292	1186.409546	1272.282959	1279.062378	107.894669
198.321304	1258.723999	1312.959839	1285.841919	50.000000
198.702271	1279.062378	1346.857300	1263.243652	-23.333200
199.083221	1288.101685	1281.322266	1233.865845	800.007202
199.464111	1290.361572	1301.660645	1213.527466	-680.003662
199.844986	1274.542725	1358.156372	1328.778687	64.864960
200.225830	1270.023071	1238.385498	1337.817993	-214.286102
200.606659	1193.188965	1321.999146	1220.306885	21.052622
200.987427	1367.195679	1505.045166	1371.715332	3.278687
201.368195	1335.558105	1425.951172	1362.676025	30.000000
201.748917	1351.376953	1383.014526	1333.298340	-57.142857
202.129608	1220.306885	1360.416260	1301.660645	58.064465
202.510284	1247.424805	1321.999146	1288.101685	54.545410
202.890915	1279.062378	1274.542725	1202.228271	1700.000000
203.271515	1256.464111	1272.282959	1270.023071	85.713959
203.652100	1324.259033	1346.857300	1238.385498	-380.000549
204.032623	1263.243652	1355.896606	1236.125732	-29.268274
204.413147	1141.212891	1279.062378	1290.361572	108.196762
204.793625	1328.778687	1378.494873	1274.542725	-109.091156
205.174088	1199.968506	1240.645386	1263.243652	155.555557
205.554504	1247.424805	1285.841919	1157.031738	-235.293747
205.934906	1236.125732	1233.865845	1238.385498	-99.994598
206.315247	1242.905151	1285.841919	1306.180420	147.368500
206.695587	1211.267578	1297.140991	1283.582031	84.210526
207.075882	1333.298340	1335.558105	1324.259033	-400.010803
207.456146	1188.669312	1290.361572	1249.684692	60.000023
207.836380	1331.038452	1292.621338	1299.400879	82.352814
208.216599	1251.944458	1270.023071	1328.778687	425.000671
208.596771	1186.409546	1256.464111	1267.763306	116.129135
208.976913	1319.739380	1337.817993	1448.549561	712.500366
209.357025	1509.564819	1475.667480	1423.691406	253.333786
209.737106	1297.140991	1270.023071	1202.228271	350.000000
210.117157	1292.621338	1324.259033	1260.983765	-99.999611
210.497177	1301.660645	1333.298340	1308.440186	21.428682
210.877167	1270.023071	1331.038452	1184.149658	-140.740601
211.257126	1231.606079	1245.165039	1290.361572	433.333344
211.637070	1337.817993	1419.171753	1360.416260	27.777779
212.016968	1238.385498	1306.180420	1306.180420	100.000000
212.396835	1256.464111	1270.023071	1263.243652	50.000450
212.776672	1206.747925	1258.723999	1206.747925	0.000000
213.156464	1184.149658	1215.787231	1123.134277	-192.857330
213.536255	1193.188965	1260.983765	1218.047119	36.666756
213.916000	1281.322266	1351.376953	1251.944458	-41.935535
214.295700	1202.228271	1319.739380	1272.282959	59.615376
214.675400	1335.558105	1315.219727	1310.700073	122.222290
215.055038	1224.826538	1319.739380	1249.684692	26.190506
215.434662	1247.424805	1242.905151	1274.542725	-600.000000
215.814240	1331.038452	1396.573486	1369.455566	58.620728
216.193787	1195.448853	1260.983765	1328.778687	203.448563
216.573334	1288.101685	1371.715332	1283.582031	-5.405401
216.952820	1256.464111	1353.636719	1211.267578	-46.511600
217.332275	1236.125732	1184.149658	1231.606079	8.695642
217.711716	1376.234985	1412.392212	1362.676025	-37.500000
218.091125	1179.630005	1227.086426	1267.763306	185.714172
218.470505	1459.848633	1534.422974	1423.691406	-48.484810
218.849854	1249.684692	1317.479492	1254.204346	6.666667
219.229156	1242.905151	1342.337646	1270.023071	27.272694
219.608444	1254.204346	1279.062378	1218.047119	-145.454895
219.987671	1367.195679	1373.975220	1346.857300	-299.996399
220.366898	1238.385498	1412.392212	1274.542725	20.779213
220.746094	1340.077759	1412.392212	1367.195679	37.500000
221.125244	1380.754639	1362.676025	1340.077759	225.000000
221.504364	1326.518799	1369.455566	1333.298340	15.789594
221.883469	1285.841919	1290.361572	1267.763306	-400.000000
222.262512	1333.298340	1238.385498	1251.944458	85.714302
222.641556	1256.464111	1206.747925	1251.944458	9.090909
223.020554	1236.125732	1321.999146	1308.440186	84.210526
223.399521	1288.101685	1308.440186	1310.700073	111.111382
223.778473	1220.306885	1247.424805	1238.385498	66.666664
224.157364	1181.889893	1220.306885	1222.566772	105.882523
224.536240	1245.165039	1349.117065	1168.330933	-73.913040
224.915085	1222.566772	1260.983765	1254.204346	82.353073
225.293900	1301.660645	1236.125732	1299.400879	3.448186
225.672684	1224.826538	1276.802612	1254.204346	56.521790
226.051437	1274.542725	1303.920532	1209.007813	-223.076248
226.430161	1297.140991	1349.117065	1328.778687	60.869728
226.808838	1254.204346	1324.259033	1353.636719	141.935364
227.187500	1439.510132	1464.368286	1398.833252	-163.635956
227.566132	1301.660645	1242.905151	1229.346191	123.076920
227.944717	1328.778687	1294.881226	1238.385498	266.666534
228.323288	1288.101685	1346.857300	1319.739380	53.846249
228.701813	1401.093140	1376.234985	1260.983765	563.635498
229.080307	1213.527466	1317.479492	1297.140991	80.434723
229.458786	1294.881226	1335.558105	1297.140991	5.555406
229.837234	1231.606079	1324.259033	1283.582031	56.097458
230.215637	1274.542725	1392.053833	1299.400879	21.153875
230.594009	1312.959839	1401.093140	1288.101685	-28.205177
230.972351	1211.267578	1371.715332	1310.700073	61.971882
231.350662	1297.140991	1398.833252	1331.038452	33.333374
231.728958	1312.959839	1398.833252	1218.047119	-110.526314
232.107193	1317.479492	1439.510132	1279.062378	-31.481531
232.485413	1195.448853	1407.872559	1190.929199	-2.127660
232.863602	1209.007813	1342.337646	1315.219727	79.661026
233.241760	1233.865845	1373.975220	1249.684692	11.290357
233.619873	1227.086426	1369.455566	1231.606079	3.174602
233.997986	1403.352905	1428.211060	1333.298340	-281.817230
234.376038	1188.669312	1410.132446	1263.243652	33.673477
234.754074	1247.424805	1459.848633	1310.700073	29.787275
235.132065	1204.488159	1373.975220	1254.204346	29.333323
235.510025	1294.881226	1498.265747	1283.582031	-5.555582
235.887970	1193.188965	1358.156372	1260.983765	41.095875
236.265869	1303.920532	1455.328979	1247.424805	-37.313457
236.643738	1283.582031	1450.809326	1236.125732	-28.378321
237.021576	1179.630005	1346.857300	1184.149658	2.702701
237.399384	1227.086426	1396.573486	1254.204346	15.999994
237.777161	1297.140991	1509.564819	1267.763306	-13.829751
238.154892	1188.669312	1362.676025	1213.527466	14.285745
238.532623	1233.865845	1369.455566	1242.905151	6.666661
238.910309	1209.007813	1419.171753	1263.243652	25.806444
239.287949	1211.267578	1396.573486	1251.944458	21.951204
239.665573	1224.826538	1471.147827	1272.282959	19.266066
240.043167	1265.503418	1446.289673	1306.180420	22.500051
240.420715	1179.630005	1414.652100	1245.165039	27.884626
240.798233	1260.983765	1432.730713	1315.219727	31.578997
241.175735	1251.944458	1482.446899	1317.479492	28.431383
241.553207	1213.527466	1416.911865	1312.959839	48.888889
241.930634	1215.787231	1403.352905	1297.140991	43.373482
242.308014	1231.606079	1428.211060	1288.101685	28.735592
242.685394	1188.669312	1568.320313	1319.739380	34.523830
243.062729	1299.400879	1660.973267	1358.156372	16.249994
243.440033	1215.787231	1642.894653	1376.234985	37.566135
243.817307	1292.621338	1753.626221	1392.053833	21.568642
244.194534	1276.802612	1663.233154	1419.171753	36.842102
244.571747	1260.983765	1740.067261	1312.959839	10.849064
244.948929	1227.086426	1742.327148	1306.180420	15.350882
245.326065	1229.346191	1690.351074	1297.140991	14.705874
245.703186	1242.905151	1688.091187	1355.896606	25.380728
246.080261	1222.566772	1577.359619	1206.747925	-4.458615
246.457306	1195.448853	1636.115234	1297.140991	23.076900
246.834320	1247.424805	1719.728760	1328.778687	17.224899
247.211304	1220.306885	1676.792114	1324.259033	22.772291
247.588257	1279.062378	1771.704834	1373.975220	19.266069
247.965195	1317.479492	1952.491089	1389.793945	11.387895
248.342087	1206.747925	1993.167969	1358.156372	19.252872
248.718933	1272.282959	2040.624390	1258.723999	-1.764705
249.095764	1184.149658	2085.820801	1292.621338	12.030071
249.472549	1260.983765	2194.292725	1355.896606	10.169498
249.849319	1292.621338	2049.663574	1247.424805	-5.970147
250.226044	1256.464111	1932.152588	1362.676025	15.719066
250.602737	1231.606079	1832.720215	1319.739380	14.661658
250.979401	1265.503418	1828.200562	1297.140991	5.622487
251.356033	1260.983765	1893.735596	1337.817993	12.142869
251.732635	1274.542725	1778.484375	1281.322266	1.345303
252.109207	1308.440186	1764.925415	1344.597412	7.920788
252.485748	1256.464111	1776.224487	1290.361572	6.521748
252.862244	1242.905151	1649.674194	1181.889893	-14.999976
253.238724	1279.062378	1737.807495	1260.983765	-3.940884
253.615158	1179.630005	1773.964722	1229.346191	8.365015
253.991577	1272.282959	1767.185181	1326.518799	10.958900
254.367950	1220.306885	1825.940674	1260.983765	6.716415
254.744308	1412.392212	1918.593628	1439.510132	5.357140
255.120621	1242.905151	1710.689453	1367.195679	26.570051
255.496902	1188.669312	1656.453613	1321.999146	28.502417
255.873154	1159.291626	1679.051880	1283.582031	23.913027
256.249390	1206.747925	1627.075928	1184.149658	-5.376341
256.625549	1247.424805	1670.012573	1224.826538	-5.347591
257.001709	1355.896606	1814.641602	1389.793945	7.389146
257.377838	1306.180420	1746.846802	1312.959839	1.538447
257.753937	1283.582031	1699.390381	1288.101685	1.086956
258.129974	1220.306885	1792.043335	1283.582031	11.067187
258.506012	1260.983765	1719.728760	1272.282959	2.463067
258.881989	1279.062378	1875.656860	1362.676025	14.015156
259.257935	1297.140991	2029.325195	1441.770020	19.753094
259.633911	1204.488159	2067.742188	1328.778687	14.397909
260.009766	1249.684692	2133.277344	1312.959839	7.161122
260.385651	1335.558105	2388.637695	1509.564819	16.523605
260.761475	1263.243652	2424.794922	1358.156372	8.171204
261.137299	1276.802612	2436.094238	1362.676025	7.407404
261.513062	1220.306885	2451.912842	1376.234985	12.660551
261.888763	1315.219727	2686.935059	1446.289673	9.555185
262.264496	1270.023071	2558.124756	1387.534180	9.122813
262.640137	1195.448853	2501.629150	1364.935913	12.975779
263.015808	1251.944458	2298.244629	1321.999146	6.695467
263.391388	1324.259033	2370.559082	1364.935913	3.887688
263.766998	1421.431519	2237.229248	1475.667480	6.648212
264.142517	1351.376953	2151.355957	1364.935913	1.694914
264.518036	1209.007813	2067.742188	1290.361572	9.473681
264.893524	1344.597412	2099.379883	1378.494873	4.491024
265.268951	1349.117065	2099.379883	1412.392212	8.433731
265.644379	1324.259033	1981.868774	1245.165039	-12.027497
266.019745	1245.165039	2004.467041	1288.101685	5.654752
266.395111	1231.606079	2074.521729	1315.219727	9.919575
266.770386	1263.243652	2060.962891	1351.376953	11.048161
267.145691	1231.606079	2006.726929	1340.077759	13.994164
267.520966	1247.424805	2160.395264	1385.274292	15.099009
267.896149	1310.700073	2176.214111	1378.494873	7.832894
268.271362	1236.125732	2135.537109	1369.455566	14.824121
268.646515	1157.031738	2045.144043	1321.999146	18.575062
269.021606	1281.322266	2286.945557	1401.093140	11.910113
269.396729	1260.983765	2255.307861	1380.754639	12.045456
269.771790	1299.400879	2207.851563	1238.385498	-6.716422
270.146790	1281.322266	2284.685791	1335.558105	5.405403
270.521790	1355.896606	2411.236084	1444.029785	8.351169
270.896759	1260.983765	2266.607178	1362.676025	10.112360
271.271667	1274.542725	2427.054932	1414.652100	12.156867
271.646545	1190.929199	2408.976318	1292.621338	8.348785
272.021423	1242.905151	2499.369385	1373.975220	10.431660
272.396271	1233.865845	2569.424072	1274.542725	3.045684
272.771027	1199.968506	2576.203369	1301.660645	7.389156
273.145813	1292.621338	2725.352051	1410.132446	8.201898
273.520538	1265.503418	2723.092285	1475.667480	14.418611
273.895233	1319.739380	2689.194824	1446.289673	9.240921
274.269897	1245.165039	2716.312744	1367.195679	8.294928
274.644501	1254.204346	2528.747070	1340.077759	6.737586
275.019135	1249.684692	2589.762451	1369.455566	8.937606
275.393677	1204.488159	2528.747070	1355.896606	11.433448
275.768250	1159.291626	2499.369385	1288.101685	9.612133
276.142700	1206.747925	2458.692383	1324.259033	9.386288
276.517212	1215.787231	2433.834229	1331.038452	9.461968
276.891632	1308.440186	2587.502686	1358.156372	3.886924
277.266022	1168.330933	2503.888916	1362.676025	14.551602
277.640381	1231.606079	2689.194824	1378.494873	10.077519
278.014740	1340.077759	2693.714600	1430.470825	6.677793
278.389038	1256.464111	2725.352051	1371.715332	7.846155
278.763336	1218.047119	2643.998291	1353.636719	9.508713
279.137543	1213.527466	2625.919678	1321.999146	7.679997
279.511780	1224.826538	2650.777832	1328.778687	7.290021
279.885925	1331.038452	2770.548584	1389.793945	4.081631
280.260101	1204.488159	2705.013672	1360.416260	10.391566
280.634186	1215.787231	2714.052979	1405.612793	12.669685
281.008301	1317.479492	2890.319580	1430.470825	7.183905
281.382294	1215.787231	2723.092285	1270.023071	3.598199
281.756348	1233.865845	2926.476807	1450.809326	12.817091
282.130280	1238.385498	2890.319580	1394.313599	9.439124
282.504272	1265.503418	2987.492188	1394.313599	7.480315
282.878143	1238.385498	3208.955322	1344.597412	5.389909
283.252014	1310.700073	3231.553467	1378.494873	3.529410
283.625854	1364.935913	3416.859375	1516.344360	7.378855
283.999664	1236.125732	3315.166992	1441.770020	9.891304
284.373444	1197.708618	3416.859375	1421.431519	10.081464
284.747192	1249.684692	3290.309082	1340.077759	4.429677
285.120941	1297.140991	3410.079834	1428.211060	6.203211
285.494629	1202.228271	3387.481689	1364.935913	7.445711
285.868256	1276.802612	3301.608154	1428.211060	7.477678
286.241882	1215.787231	3518.551514	1518.604126	13.150148
286.615448	1272.282959	3735.495117	1401.093140	5.229358
286.988983	1231.606079	3672.219971	1434.990479	8.333330
287.362518	1285.841919	3850.746338	1529.903320	9.515419
287.736023	1254.204346	3934.359863	1500.525513	9.190555
288.109467	1276.802612	3886.903564	1401.093140	4.761905
288.482880	1333.298340	3846.226563	1529.903320	7.823740
288.856262	1367.195679	3746.794189	1543.462280	7.407409
289.229584	1256.464111	3615.724121	1444.029785	7.950191
289.602936	1166.071045	3520.811523	1459.848633	12.476007
289.976227	1308.440186	3617.984131	1430.470825	5.283755
290.349457	1184.149658	3726.455811	1401.093140	8.533334
290.722687	1220.306885	3676.739502	1385.274292	6.715731
291.095886	1285.841919	3900.462402	1401.093140	4.407952
291.469025	1285.841919	3997.635010	1385.274292	3.666665
291.842133	1186.409546	4137.744141	1455.328979	9.111792
292.215240	1267.763306	4065.429932	1419.171753	5.411955
292.588287	1279.062378	4140.004395	1457.588867	6.240130
292.961304	1229.346191	4031.532471	1423.691406	6.935485
293.334320	1281.322266	4033.792236	1462.108521	6.568146
293.707245	1249.684692	3873.344482	1396.573486	5.598622
294.080170	1227.086426	3936.619629	1448.549561	8.173479
294.453064	1279.062378	4002.154785	1475.667480	7.219921
294.825897	1204.488159	4126.445313	1346.857300	4.872390
295.198730	1260.983765	4171.641602	1464.368286	6.987579
295.571533	1297.140991	4406.664063	1401.093140	3.343026
295.944275	1199.968506	4478.978516	1416.911865	6.616124
296.317017	1337.817993	4763.716797	1586.398926	7.255933
296.689697	1251.944458	4691.402344	1471.147827	6.373195
297.062317	1202.228271	4759.196777	1473.407593	7.623889
297.434967	1270.023071	4885.747070	1475.667480	5.687503
297.807526	1211.267578	5043.935059	1475.667480	6.898587
298.180115	1245.165039	4890.267090	1446.289673	5.517668
298.552612	1197.708618	5082.352539	1475.667480	7.155324
298.925110	1299.400879	5168.225586	1473.407593	4.497663
299.297546	1263.243652	5062.013672	1514.084473	6.603211
299.669983	1328.778687	5107.210449	1446.289673	3.110047
300.042358	1358.156372	4885.747070	1518.604126	4.548367
300.414734	1258.723999	4675.583496	1523.123779	7.738094
300.787048	1274.542725	4558.072266	1434.990479	4.886442
301.159332	1285.841919	4472.198730	1430.470825	4.539005
301.531616	1202.228271	4334.349121	1380.754639	5.699856
301.903809	1328.778687	4458.639648	1489.226440	5.126354
302.276031	1249.684692	4255.255371	1416.911865	5.563907
302.648163	1274.542725	4442.821289	1396.573486	3.851642
303.020294	1206.747925	4216.838379	1355.896606	4.954957
303.392395	1270.023071	4311.750977	1412.392212	4.680535
303.764435	1256.464111	4144.523926	1412.392212	5.399061
304.136444	1233.865845	4214.578613	1385.274292	5.079605
304.508453	1308.440186	4341.128906	1493.746094	6.110284
304.880371	1281.322266	4191.979980	1520.864014	8.229815
305.252319	1285.841919	4187.460449	1475.667480	6.542058
305.624207	1256.464111	4246.216309	1466.628174	7.029481
305.996033	1310.700073	4182.940918	1475.667480	5.743509
306.367859	1254.204346	4063.170166	1396.573486	5.068383
306.739655	1197.708618	4187.460449	1378.494873	6.046865
307.111389	1143.472778	4117.405762	1453.069214	10.410336
307.483124	1238.385498	4146.783691	1373.975220	4.662007
307.854828	1249.684692	4307.231445	1405.612793	5.099778
308.226471	1199.968506	4212.318848	1389.793945	6.301572
308.598083	1260.983765	4248.476074	1355.896606	3.177007
308.969666	1166.071045	4397.624512	1344.597412	5.524475
309.341187	1279.062378	4338.869141	1423.691406	4.726737
309.712738	1188.669312	4639.426270	1434.990479	7.138178
310.084167	1254.204346	4662.024414	1439.510132	5.437664
310.455658	1301.660645	4854.109863	1473.407593	4.834607
310.827057	1337.817993	4935.463379	1586.398926	6.909545
311.198456	1249.684692	4824.731934	1563.800659	8.786345
311.569794	1263.243652	4885.747070	1450.809326	5.177792
311.941132	1297.140991	4894.786621	1520.864014	6.218596
312.312408	1242.905151	4863.148926	1428.211060	5.118603
312.683655	1303.920532	4926.424316	1523.123779	6.051153
313.054840	1247.424805	4817.952637	1579.619507	9.303798
313.426056	1340.077759	4822.472168	1529.903320	5.451007
313.797180	1405.612793	4795.354004	1532.163086	3.733332
314.168304	1227.086426	4763.716797	1462.108521	6.645368
314.539368	1168.330933	4736.598633	1358.156372	5.319821
314.910431	1202.228271	4675.583496	1360.416260	4.554328
315.281433	1249.684692	4822.472168	1480.187134	6.451613
315.652435	1276.802612	4788.574707	1475.667480	5.662807
316.023346	1163.811279	4989.699219	1455.328979	7.619609
316.394287	1247.424805	4933.203613	1425.951172	4.843654
316.765137	1256.464111	4707.220703	1455.328979	5.762935
317.135986	1285.841919	4813.432617	1505.045166	6.213964
317.506775	1211.267578	4607.788574	1430.470825	6.453758
317.877594	1335.558105	4716.260254	1611.257080	8.155080
318.248291	1360.416260	4497.057129	1441.770020	2.593659
318.619019	1333.298340	4569.371582	1464.368286	4.050278
