Jaz Data File
++++++++++++++++++++++++++++++++++++
Date: Mon Apr 25 12:46:12 2016
User: jaz
Dark Spectrum Present: Yes
Reference Spectrum Present: Yes
Processed Spectrum Present: Yes
Spectrometers: JAZA3098
Integration Time (usec): 890000 (JAZA3098)
Spectra Averaged: 1 (JAZA3098)
Boxcar Smoothing: 0 (JAZA3098)
Correct for Electrical Dark: No (JAZA3098)
Strobe/Lamp Enabled: Yes (JAZA3098)
Correct for Detector Non-linearity: No (JAZA3098)
Correct for Stray Light: No (JAZA3098)
Number of Pixels in Processed Spectrum: 2048
>>>>>Begin Processed Spectral Data<<<<<
W	D	R	S	P
190.313904	0.000000	0.000000	0.000000	0.000000
190.695511	0.000000	0.000000	0.000000	0.000000
191.077087	1138.953125	1123.134277	1102.795898	228.570541
191.458633	1184.149658	1227.086426	1091.496704	-215.789307
191.840149	1175.110352	1193.188965	1206.747925	175.000000
192.221634	1213.527466	1215.787231	1186.409546	-1200.032471
192.603088	1206.747925	1308.440186	1211.267578	4.444442
192.984528	1292.621338	1260.983765	1231.606079	192.856949
193.365921	1294.881226	1362.676025	1290.361572	-6.666667
193.747284	1206.747925	1288.101685	1260.983765	66.666664
194.128616	1242.905151	1224.826538	1240.645386	12.499662
194.509918	1303.920532	1306.180420	1265.503418	-1699.956787
194.891190	1256.464111	1281.322266	1213.527466	-172.726608
195.272446	1204.488159	1281.322266	1258.723999	70.588234
195.653656	1419.171753	1367.195679	1321.999146	186.956421
196.034836	1254.204346	1274.542725	1321.999146	333.334320
196.416000	1195.448853	1251.944458	1240.645386	80.000084
196.797104	1290.361572	1312.959839	1283.582031	-30.000271
197.178192	1315.219727	1303.920532	1283.582031	279.999573
197.559265	1328.778687	1227.086426	1222.566772	104.444443
197.940292	1251.944458	1233.865845	1256.464111	-25.000000
198.321304	1288.101685	1236.125732	1272.282959	30.434700
198.702271	1337.817993	1220.306885	1303.920532	28.846176
199.083221	1175.110352	1308.440186	1215.787231	30.508461
199.464111	1220.306885	1308.440186	1193.188965	-30.769209
199.844986	1292.621338	1236.125732	1263.243652	51.999947
200.225830	1245.165039	1303.920532	1224.826538	-34.615490
200.606659	1222.566772	1267.763306	1236.125732	30.000000
200.987427	1389.793945	1385.274292	1434.990479	-1000.000000
201.368195	1290.361572	1373.975220	1288.101685	-2.702774
201.748917	1303.920532	1349.117065	1335.558105	70.000000
202.129608	1288.101685	1274.542725	1256.464111	233.333328
202.510284	1290.361572	1238.385498	1283.582031	13.043580
202.890915	1175.110352	1218.047119	1279.062378	242.104919
203.271515	1242.905151	1249.684692	1195.448853	-699.992798
203.652100	1274.542725	1317.479492	1315.219727	94.736992
204.032623	1251.944458	1312.959839	1281.322266	48.148201
204.413147	1317.479492	1206.747925	1213.527466	93.877502
204.793625	1340.077759	1367.195679	1267.763306	-266.666656
205.174088	1258.723999	1274.542725	1179.630005	-500.002319
205.554504	1215.787231	1297.140991	1186.409546	-36.111034
205.934906	1181.889893	1267.763306	1215.787231	39.473614
206.315247	1193.188965	1213.527466	1263.243652	344.443726
206.695587	1215.787231	1249.684692	1238.385498	66.666550
207.075882	1283.582031	1380.754639	1233.865845	-51.162758
207.456146	1254.204346	1317.479492	1186.409546	-107.142860
207.836380	1353.636719	1290.361572	1283.582031	110.714386
208.216599	1242.905151	1236.125732	1319.739380	-1133.345337
208.596771	1224.826538	1283.582031	1224.826538	0.000000
208.976913	1303.920532	1373.975220	1321.999146	25.806429
209.357025	1383.014526	1498.265747	1480.187134	84.313736
209.737106	1256.464111	1299.400879	1281.322266	57.894798
210.117157	1204.488159	1283.582031	1238.385498	42.857098
210.497177	1202.228271	1335.558105	1263.243652	45.762737
210.877167	1258.723999	1242.905151	1193.188965	414.284515
211.257126	1238.385498	1227.086426	1247.424805	-80.000435
211.637070	1238.385498	1360.416260	1231.606079	-5.555500
212.016968	1227.086426	1267.763306	1215.787231	-27.777927
212.396835	1312.959839	1294.881226	1229.346191	462.500336
212.776672	1186.409546	1238.385498	1197.708618	21.739038
213.156464	1218.047119	1265.503418	1157.031738	-128.571716
213.536255	1231.606079	1231.606079	1229.346191	0.000000
213.916000	1170.590698	1349.117065	1251.944458	45.569603
214.295700	1233.865845	1258.723999	1240.645386	27.272905
214.675400	1258.723999	1321.999146	1256.464111	-3.571525
215.055038	1209.007813	1224.826538	1215.787231	42.856922
215.434662	1267.763306	1319.739380	1265.503418	-4.347939
215.814240	1317.479492	1288.101685	1301.660645	53.846249
216.193787	1265.503418	1285.841919	1229.346191	-177.777237
216.573334	1297.140991	1319.739380	1288.101685	-39.999783
216.952820	1249.684692	1272.282959	1249.684692	0.000000
217.332275	1260.983765	1188.669312	1227.086426	46.874916
217.711716	1378.494873	1387.534180	1387.534180	100.000000
218.091125	1285.841919	1233.865845	1188.669312	186.956421
218.470505	1432.730713	1430.470825	1405.612793	1199.967651
218.849854	1312.959839	1301.660645	1238.385498	659.996948
219.229156	1297.140991	1288.101685	1256.464111	450.000000
219.608444	1233.865845	1297.140991	1175.110352	-92.857140
219.987671	1333.298340	1369.455566	1310.700073	-62.500000
220.366898	1272.282959	1218.047119	1206.747925	120.833443
220.746094	1342.337646	1353.636719	1373.975220	280.001526
221.125244	1344.597412	1394.313599	1335.558105	-18.181818
221.504364	1331.038452	1303.920532	1267.763306	233.333328
221.883469	1229.346191	1283.582031	1270.023071	75.000000
222.262512	1283.582031	1297.140991	1247.424805	-266.666656
222.641556	1177.370239	1209.007813	1177.370239	0.000000
223.020554	1227.086426	1270.023071	1249.684692	52.631653
223.399521	1238.385498	1258.723999	1236.125732	-11.110778
223.778473	1220.306885	1270.023071	1211.267578	-18.181818
224.157364	1168.330933	1265.503418	1301.660645	137.209320
224.536240	1310.700073	1211.267578	1206.747925	104.545448
224.915085	1084.717285	1231.606079	1190.929199	72.307701
225.293900	1215.787231	1344.597412	1215.787231	0.000000
225.672684	1267.763306	1315.219727	1283.582031	33.333160
226.051437	1258.723999	1267.763306	1301.660645	474.999329
226.430161	1175.110352	1319.739380	1260.983765	59.374950
226.808838	1233.865845	1317.479492	1195.448853	-45.945839
227.187500	1353.636719	1342.337646	1331.038452	200.001083
227.566132	1213.527466	1324.259033	1190.929199	-20.408152
227.944717	1265.503418	1294.881226	1251.944458	-46.153751
228.323288	1355.896606	1335.558105	1292.621338	311.110779
228.701813	1251.944458	1297.140991	1258.723999	15.000135
229.080307	1229.346191	1333.298340	1274.542725	43.478210
229.458786	1265.503418	1288.101685	1240.645386	-109.999733
229.837234	1238.385498	1326.518799	1290.361572	58.974388
230.215637	1159.291626	1297.140991	1181.889893	16.393450
230.594009	1236.125732	1398.833252	1331.038452	58.333332
230.972351	1231.606079	1394.313599	1308.440186	47.222221
231.350662	1265.503418	1484.706787	1294.881226	13.402079
231.728958	1188.669312	1410.132446	1209.007813	9.183696
232.107193	1242.905151	1387.534180	1242.905151	0.000000
232.485413	1197.708618	1326.518799	1260.983765	49.122784
232.863602	1204.488159	1367.195679	1247.424805	26.388851
233.241760	1233.865845	1401.093140	1306.180420	43.243286
233.619873	1163.811279	1249.684692	1206.747925	49.999928
233.997986	1331.038452	1416.911865	1369.455566	44.736912
234.376038	1346.857300	1441.770020	1288.101685	-61.904892
234.754074	1242.905151	1453.069214	1254.204346	5.376369
235.132065	1321.999146	1349.117065	1184.149658	-508.333557
235.510025	1231.606079	1410.132446	1358.156372	70.886055
235.887970	1249.684692	1378.494873	1290.361572	31.578932
236.265869	1260.983765	1439.510132	1276.802612	8.860790
236.643738	1245.165039	1432.730713	1283.582031	20.481888
237.021576	1229.346191	1373.975220	1242.905151	9.374992
237.399384	1233.865845	1315.219727	1236.125732	2.777849
237.777161	1265.503418	1419.171753	1349.117065	54.411762
238.154892	1301.660645	1299.400879	1285.841919	700.016235
238.532623	1220.306885	1385.274292	1328.778687	65.753471
238.910309	1279.062378	1389.793945	1292.621338	12.244891
239.287949	1197.708618	1401.093140	1199.968506	1.111140
239.665573	1215.787231	1401.093140	1249.684692	18.292704
240.043167	1251.944458	1441.770020	1270.023071	9.523804
240.420715	1290.361572	1498.265747	1292.621338	1.086927
240.798233	1242.905151	1550.241699	1279.062378	11.764701
241.175735	1312.959839	1527.643433	1290.361572	-10.526313
241.553207	1184.149658	1405.612793	1242.905151	26.530598
241.930634	1222.566772	1493.746094	1283.582031	22.499968
242.308014	1245.165039	1498.265747	1331.038452	33.928555
242.685394	1172.850586	1527.643433	1202.228271	8.280236
243.062729	1272.282959	1622.556274	1346.857300	21.290329
243.440033	1168.330933	1606.737427	1270.023071	23.195856
243.817307	1301.660645	1712.949341	1369.455566	16.483536
244.194534	1163.811279	1746.846802	1337.817993	29.844959
244.571747	1220.306885	1742.327148	1364.935913	27.705635
244.948929	1249.684692	1807.862061	1414.652100	29.554657
245.326065	1188.669312	1733.287720	1441.770020	46.473038
245.703186	1301.660645	1642.894653	1328.778687	7.947052
246.080261	1168.330933	1615.776733	1342.337646	38.888893
246.457306	1206.747925	1660.973267	1349.117065	31.343285
246.834320	1301.660645	1595.438354	1256.464111	-15.384603
247.211304	1258.723999	1719.728760	1272.282959	2.941176
247.588257	1272.282959	1819.161255	1401.093140	23.553720
247.965195	1279.062378	1918.593628	1407.872559	20.141342
248.342087	1199.968506	2018.026001	1401.093140	24.585636
248.718933	1220.306885	1975.089355	1401.093140	23.952101
249.095764	1195.448853	1977.349121	1367.195679	21.965311
249.472549	1247.424805	2207.851563	1346.857300	10.352949
249.849319	1170.590698	2031.585083	1328.778687	18.372709
250.226044	1218.047119	1999.947388	1373.975220	19.942198
250.602737	1193.188965	1857.578247	1385.274292	28.911564
250.979401	1301.660645	1792.043335	1349.117065	9.677425
251.356033	1317.479492	1886.956055	1412.392212	16.666660
251.732635	1260.983765	1731.027954	1290.361572	6.250010
252.109207	1324.259033	1792.043335	1403.352905	16.908194
252.485748	1333.298340	1794.303101	1263.243652	-15.196088
252.862244	1242.905151	1649.674194	1337.817993	23.333349
253.238724	1276.802612	1733.287720	1319.739380	9.405951
253.615158	1267.763306	1758.145874	1312.959839	9.216586
253.991577	1285.841919	1758.145874	1326.518799	8.612437
254.367950	1204.488159	1753.626221	1319.739380	20.987658
254.744308	1394.313599	1884.696289	1459.848633	13.364059
255.120621	1288.101685	1755.886108	1337.817993	10.628038
255.496902	1238.385498	1758.145874	1328.778687	17.391319
255.873154	1211.267578	1674.532227	1245.165039	7.317083
256.249390	1249.684692	1688.091187	1310.700073	13.917536
256.625549	1218.047119	1640.634888	1337.817993	28.342249
257.001709	1358.156372	1789.783447	1405.612793	10.994774
257.377838	1303.920532	1719.728760	1326.518799	5.434781
257.753937	1251.944458	1681.311768	1373.975220	28.421064
258.129974	1170.590698	1726.508301	1270.023071	17.886171
258.506012	1274.542725	1846.279175	1306.180420	5.533615
258.881989	1319.739380	1873.397095	1355.896606	6.530610
259.257935	1240.645386	1905.034668	1328.778687	13.265310
259.633911	1220.306885	1941.191895	1421.431519	27.899683
260.009766	1265.503418	2067.742188	1527.643433	32.676060
260.385651	1358.156372	2323.102783	1545.722046	19.437937
260.761475	1161.551392	2295.984863	1412.392212	22.111549
261.137299	1220.306885	2422.535156	1545.722046	27.067669
261.513062	1179.630005	2576.203369	1473.407593	21.035601
261.888763	1331.038452	2628.179443	1590.918701	20.034849
262.264496	1222.566772	2549.085449	1437.250366	16.183987
262.640137	1227.086426	2329.882324	1425.951172	18.032780
263.015808	1168.330933	2334.401855	1421.431519	21.705420
263.391388	1317.479492	2336.661865	1462.108521	14.190692
263.766998	1315.219727	2239.489258	1554.761353	25.916859
264.142517	1312.959839	2196.552490	1468.887939	17.647057
264.518036	1231.606079	1993.167969	1312.959839	10.682488
264.893524	1251.944458	2058.702881	1353.636719	12.605044
265.268951	1288.101685	2149.095947	1486.966553	23.097118
265.644379	1233.865845	1918.593628	1385.274292	22.112211
266.019745	1193.188965	1945.711548	1428.211060	31.231236
266.395111	1238.385498	1959.270508	1355.896606	16.300951
266.770386	1292.621338	1999.947388	1446.289673	21.725248
267.145691	1233.865845	2038.364502	1430.470825	24.438198
267.520966	1236.125732	2101.639648	1412.392212	20.365528
267.896149	1324.259033	2194.292725	1439.510132	13.246739
268.271362	1240.645386	2214.631104	1444.029785	20.881660
268.646515	1129.913818	2133.277344	1371.715332	24.099094
269.021606	1206.747925	2293.725098	1446.289673	22.037422
269.396729	1209.007813	2203.332031	1392.053833	18.409088
269.771790	1218.047119	2320.843018	1396.573486	16.188522
270.146790	1301.660645	2250.788330	1410.132446	11.428578
270.521790	1401.093140	2286.945557	1568.320313	18.877542
270.896759	1272.282959	2244.008789	1437.250366	16.976744
271.271667	1202.228271	2363.779785	1491.486206	24.902721
271.646545	1199.968506	2384.118164	1405.612793	17.366409
272.021423	1274.542725	2370.559082	1455.328979	16.494850
272.396271	1179.630005	2521.967529	1457.588867	20.707077
272.771027	1215.787231	2562.644531	1511.824707	21.979870
273.145813	1233.865845	2725.352051	1557.021240	21.666670
273.520538	1292.621338	2772.808594	1647.414307	23.969465
273.895233	1206.747925	2756.989746	1557.021240	22.594753
274.269897	1222.566772	2619.140137	1566.060547	24.595469
274.644501	1258.723999	2668.856445	1448.549561	13.461541
275.019135	1249.684692	2603.321289	1473.407593	16.527546
275.393677	1163.811279	2540.046143	1430.470825	19.376020
275.768250	1195.448853	2476.770996	1340.077759	11.287475
276.142700	1224.826538	2472.251465	1462.108521	19.021744
276.517212	1213.527466	2544.565918	1482.446899	20.203732
276.891632	1163.811279	2576.203369	1453.069214	20.480003
277.266022	1292.621338	2646.258057	1455.328979	12.020038
277.640381	1256.464111	2709.533203	1575.099854	21.928465
278.014740	1260.983765	2711.793213	1514.084473	17.445482
278.389038	1213.527466	2707.273438	1559.281006	23.146744
278.763336	1193.188965	2675.635986	1509.564819	21.341461
279.137543	1188.669312	2754.729980	1502.785400	20.057722
279.511780	1240.645386	2621.400146	1516.344360	19.967266
279.885925	1265.503418	2707.273438	1570.580200	21.159878
280.260101	1227.086426	2689.194824	1538.942627	21.329212
280.634186	1195.448853	2775.068359	1586.398926	24.749636
281.008301	1285.841919	2747.950439	1640.634888	24.265844
281.382294	1206.747925	2804.446045	1489.226440	17.680344
281.756348	1267.763306	2942.295654	1651.933960	22.941967
282.130280	1181.889893	3043.987793	1581.879272	21.480577
282.504272	1270.023071	3107.262939	1611.257080	18.573187
282.878143	1229.346191	3247.372314	1663.233154	21.500563
283.252014	1238.385498	3301.608154	1674.532227	21.139101
283.625854	1392.053833	3401.040527	1690.351074	14.848145
283.999664	1263.243652	3321.946533	1608.997314	16.794733
284.373444	1265.503418	3362.623535	1697.130493	20.581896
284.747192	1247.424805	3297.088379	1672.272461	20.727678
285.120941	1294.881226	3416.859375	1776.224487	22.683706
285.494629	1161.551392	3326.466309	1581.879272	19.415445
285.868256	1202.228271	3407.820068	1633.855347	19.569672
286.241882	1324.259033	3642.842041	1710.689453	16.666662
286.615448	1256.464111	3688.038574	1724.248413	19.237919
286.988983	1202.228271	3520.811523	1726.508301	22.612085
287.362518	1344.597412	3848.486328	1841.759521	19.855598
287.736023	1179.630005	3929.840332	1828.200562	23.582579
288.109467	1290.361572	3758.093262	1807.862061	20.970695
288.482880	1317.479492	3782.951416	1776.224487	18.606783
288.856262	1355.896606	3778.431885	1877.916748	21.548506
289.229584	1249.684692	3645.102051	1830.460327	24.245277
289.602936	1240.645386	3819.108643	1710.689453	18.229620
289.976227	1224.826538	3617.984131	1794.303101	23.796032
290.349457	1303.920532	3721.936035	1753.626221	18.598129
290.722687	1247.424805	3593.125977	1783.004028	22.832373
291.095886	1247.424805	3916.281250	1742.327148	18.543610
291.469025	1206.747925	3823.628418	1755.886108	20.984459
291.842133	1224.826538	4078.988770	1889.215942	23.277914
292.215240	1294.881226	4049.611084	1923.113281	22.805576
292.588287	1220.306885	4162.602539	1905.034668	23.271889
292.961304	1222.566772	4076.729004	1844.019287	21.773554
293.334320	1276.802612	4015.713623	1954.750854	24.752474
293.707245	1213.527466	3927.580322	1825.940674	22.564529
294.080170	1202.228271	3999.894775	1866.617554	23.747980
294.453064	1215.787231	4060.910156	1853.058594	22.398727
294.825897	1236.125732	4173.901367	1938.932129	23.923079
295.198730	1184.149658	4230.397461	1857.578247	22.106823
295.571533	1215.787231	4390.845215	1945.711548	22.989321
295.944275	1310.700073	4413.443359	2063.222656	24.253460
296.317017	1247.424805	4711.740723	2140.056641	25.766468
296.689697	1222.566772	4720.779785	2106.159424	25.258402
297.062317	1249.684692	4815.692871	2038.364502	22.116600
297.434967	1274.542725	4973.880371	2092.600342	22.113625
297.807526	1238.385498	4994.219238	2149.095947	24.247890
298.180115	1209.007813	5003.258301	2108.419189	23.704586
298.552612	1199.968506	5107.210449	2090.340576	22.787739
298.925110	1267.763306	5080.092285	2253.048096	25.844694
299.297546	1260.983765	5102.690918	2253.048096	25.823528
299.669983	1206.747925	4958.062012	2187.513184	26.144579
300.042358	1274.542725	4811.172852	2185.253418	25.750805
300.414734	1285.841919	4533.214355	2042.884155	23.312454
300.787048	1288.101685	4650.725098	2022.545654	21.841398
301.159332	1236.125732	4393.104980	2031.585083	25.196852
301.531616	1222.566772	4408.923828	1990.908081	24.113472
301.903809	1249.684692	4368.246582	2088.080811	26.884062
302.276031	1193.188965	4345.648438	2092.600342	28.530466
302.648163	1206.747925	4429.262207	2042.884155	25.946705
303.020294	1195.448853	4381.805664	1966.050049	24.184397
303.392395	1213.527466	4390.845215	2004.467041	24.893311
303.764435	1209.007813	4402.144043	2038.364502	25.973106
304.136444	1279.062378	4234.916992	1999.947388	24.388380
304.508453	1236.125732	4239.436523	2027.065430	26.335592
304.880371	1299.400879	4223.617676	2049.663574	25.656878
305.252319	1222.566772	4185.200684	2027.065430	27.154846
305.624207	1281.322266	4176.161621	1970.569702	23.809523
305.996033	1260.983765	4180.681152	1941.191895	23.297215
306.367859	1132.173584	4049.611084	1981.868774	29.124710
306.739655	1213.527466	4210.059082	1882.436401	22.322771
307.111389	1209.007813	4130.964844	1952.491089	25.444702
307.483124	1190.929199	4142.264160	1938.932129	25.344563
307.854828	1301.660645	4243.956055	2033.844849	24.884796
308.226471	1256.464111	4203.279297	2008.986694	25.536810
308.598083	1326.518799	4365.986816	1898.255249	18.810411
308.969666	1233.865845	4259.774902	1957.010742	23.898434
309.341187	1256.464111	4404.403809	1979.609009	22.972006
309.712738	1236.125732	4585.190430	2058.702881	24.561399
310.084167	1211.267578	4614.567871	2099.379883	26.095619
310.455658	1324.259033	4973.880371	2171.694336	23.219814
310.827057	1238.385498	4919.644531	2187.513184	25.782692
311.198456	1215.787231	4838.291016	2207.851563	27.386148
311.569794	1267.763306	5062.013672	2178.473877	24.002384
311.941132	1233.865845	5041.675293	2223.670410	25.994066
312.312408	1204.488159	4960.321777	2144.576416	25.030083
312.683655	1224.826538	4951.282227	2282.425781	28.380836
313.054840	1279.062378	4761.456543	2225.930176	27.190140
313.426056	1333.298340	4933.203613	2219.150635	24.607656
313.797180	1328.778687	5048.455078	2246.268555	24.665854
314.168304	1260.983765	4689.142090	2196.552490	27.290710
314.539368	1211.267578	4589.709961	2158.135254	28.026752
314.910431	1236.125732	4702.701172	2173.954102	27.053453
315.281433	1274.542725	4790.834473	2246.268555	27.634960
315.652435	1303.920532	5007.777832	2262.087402	25.869432
316.023346	1245.165039	4991.958984	2250.788330	26.839567
316.394287	1238.385498	4964.841309	2142.316650	24.257128
316.765137	1199.968506	4845.070313	2167.174561	26.534405
317.135986	1303.920532	4962.581543	2316.323242	27.671398
317.506775	1224.826538	4686.882324	2137.796875	26.370758
317.877594	1319.739380	4695.921875	2219.150635	26.639887
