Jaz Data File
++++++++++++++++++++++++++++++++++++
Date: Mon Apr 25 12:46:18 2016
User: jaz
Dark Spectrum Present: Yes
Reference Spectrum Present: Yes
Processed Spectrum Present: Yes
Spectrometers: JAZA3098
Integration Time (usec): 890000 (JAZA3098)
Spectra Averaged: 1 (JAZA3098)
Boxcar Smoothing: 0 (JAZA3098)
Correct for Electrical Dark: No (JAZA3098)
Strobe/Lamp Enabled: Yes (JAZA3098)
Correct for Detector Non-linearity: No (JAZA3098)
Correct for Stray Light: No (JAZA3098)
Number of Pixels in Processed Spectrum: 2048
>>>>>Begin Processed Spectral Data<<<<<
W	D	R	S	P
190.313904	0.000000	0.000000	0.000000	0.000000
190.695511	0.000000	0.000000	0.000000	0.000000
191.077087	1138.953125	1123.134277	1145.732544	-42.856590
191.458633	1184.149658	1227.086426	1100.536011	-194.736710
191.840149	1175.110352	1193.188965	1116.354858	-325.000000
192.221634	1213.527466	1215.787231	1111.835205	-4500.124023
192.603088	1206.747925	1308.440186	1220.306885	13.333325
192.984528	1292.621338	1260.983765	1285.841919	21.428379
193.365921	1294.881226	1362.676025	1301.660645	9.999910
193.747284	1206.747925	1288.101685	1238.385498	38.888889
194.128616	1242.905151	1224.826538	1310.700073	-375.000671
194.509918	1303.920532	1306.180420	1249.684692	-2399.935303
194.891190	1256.464111	1281.322266	1256.464111	0.000000
195.272446	1204.488159	1281.322266	1242.905151	49.999920
195.653656	1419.171753	1367.195679	1459.848633	-78.260780
196.034836	1254.204346	1274.542725	1337.817993	411.112640
196.416000	1195.448853	1251.944458	1281.322266	152.000168
196.797104	1290.361572	1312.959839	1279.062378	-50.000271
197.178192	1315.219727	1303.920532	1224.826538	799.996765
197.559265	1328.778687	1227.086426	1256.464111	71.111191
197.940292	1251.944458	1233.865845	1242.905151	50.000000
198.321304	1288.101685	1236.125732	1265.503418	43.478313
198.702271	1337.817993	1220.306885	1231.606079	90.384575
199.083221	1175.110352	1308.440186	1211.267578	27.118631
199.464111	1220.306885	1308.440186	1218.047119	-2.564032
199.844986	1292.621338	1236.125732	1281.322266	19.999914
200.225830	1245.165039	1303.920532	1247.424805	3.846050
200.606659	1222.566772	1267.763306	1204.488159	-40.000000
200.987427	1389.793945	1385.274292	1425.951172	-800.000000
201.368195	1290.361572	1373.975220	1254.204346	-43.243210
201.748917	1303.920532	1349.117065	1321.999146	40.000000
202.129608	1288.101685	1274.542725	1346.857300	-433.334229
202.510284	1290.361572	1238.385498	1265.503418	47.826149
202.890915	1175.110352	1218.047119	1222.566772	110.526299
203.271515	1242.905151	1249.684692	1263.243652	299.998199
203.652100	1274.542725	1317.479492	1335.558105	142.105209
204.032623	1251.944458	1312.959839	1276.802612	40.740799
204.413147	1317.479492	1206.747925	1218.047119	89.795868
204.793625	1340.077759	1367.195679	1260.983765	-291.666901
205.174088	1258.723999	1274.542725	1242.905151	-100.000771
205.554504	1215.787231	1297.140991	1204.488159	-13.888814
205.934906	1181.889893	1267.763306	1218.047119	42.105263
206.315247	1193.188965	1213.527466	1236.125732	211.110779
206.695587	1215.787231	1249.684692	1211.267578	-13.333309
207.075882	1283.582031	1380.754639	1349.117065	67.441879
207.456146	1254.204346	1317.479492	1213.527466	-64.285713
207.836380	1353.636719	1290.361572	1220.306885	210.714386
208.216599	1242.905151	1236.125732	1249.684692	-100.001801
208.596771	1224.826538	1283.582031	1184.149658	-69.230766
208.976913	1303.920532	1373.975220	1394.313599	129.032150
209.357025	1383.014526	1498.265747	1446.289673	54.901932
209.737106	1256.464111	1299.400879	1215.787231	-94.736710
210.117157	1204.488159	1283.582031	1258.723999	68.571480
210.497177	1202.228271	1335.558105	1172.850586	-22.033842
210.877167	1258.723999	1242.905151	1292.621338	-214.284500
211.257126	1238.385498	1227.086426	1236.125732	19.999567
211.637070	1238.385498	1360.416260	1279.062378	33.333302
212.016968	1227.086426	1267.763306	1247.424805	49.999851
212.396835	1312.959839	1294.881226	1220.306885	512.500366
212.776672	1186.409546	1238.385498	1179.630005	-13.043611
213.156464	1218.047119	1265.503418	1197.708618	-42.857327
213.536255	1231.606079	1231.606079	1238.385498	0.000000
213.916000	1170.590698	1349.117065	1251.944458	45.569603
214.295700	1233.865845	1258.723999	1247.424805	54.545322
214.675400	1258.723999	1321.999146	1276.802612	28.571428
215.055038	1209.007813	1224.826538	1231.606079	142.857697
215.434662	1267.763306	1319.739380	1340.077759	139.130264
215.814240	1317.479492	1288.101685	1398.833252	-276.922516
216.193787	1265.503418	1285.841919	1270.023071	22.222155
216.573334	1297.140991	1319.739380	1319.739380	100.000000
216.952820	1249.684692	1272.282959	1263.243652	60.000000
217.332275	1260.983765	1188.669312	1229.346191	43.750000
217.711716	1378.494873	1387.534180	1398.833252	224.999329
218.091125	1285.841919	1233.865845	1290.361572	-8.695642
218.470505	1432.730713	1430.470825	1432.730713	-0.000000
218.849854	1312.959839	1301.660645	1299.400879	119.999352
219.229156	1297.140991	1288.101685	1247.424805	550.000000
219.608444	1233.865845	1297.140991	1308.440186	117.857239
219.987671	1333.298340	1369.455566	1310.700073	-62.500000
220.366898	1272.282959	1218.047119	1206.747925	120.833443
220.746094	1342.337646	1353.636719	1358.156372	140.000214
221.125244	1344.597412	1394.313599	1335.558105	-18.181818
221.504364	1331.038452	1303.920532	1215.787231	425.000214
221.883469	1229.346191	1283.582031	1190.929199	-70.833221
222.262512	1283.582031	1297.140991	1281.322266	-16.666216
222.641556	1177.370239	1209.007813	1249.684692	228.571426
223.020554	1227.086426	1270.023071	1251.944458	57.894676
223.399521	1238.385498	1258.723999	1283.582031	222.221558
223.778473	1220.306885	1270.023071	1238.385498	36.363636
224.157364	1168.330933	1265.503418	1220.306885	53.488342
224.536240	1310.700073	1211.267578	1242.905151	68.181854
224.915085	1084.717285	1231.606079	1172.850586	60.000015
225.293900	1215.787231	1344.597412	1211.267578	-3.508770
225.672684	1267.763306	1315.219727	1267.763306	0.000000
226.051437	1258.723999	1267.763306	1270.023071	124.999321
226.430161	1175.110352	1319.739380	1206.747925	21.874981
226.808838	1233.865845	1317.479492	1242.905151	10.810802
227.187500	1353.636719	1342.337646	1312.959839	360.001953
227.566132	1213.527466	1324.259033	1288.101685	67.346848
227.944717	1265.503418	1294.881226	1310.700073	153.846252
228.323288	1355.896606	1335.558105	1317.479492	188.888626
228.701813	1251.944458	1297.140991	1308.440186	125.000137
229.080307	1229.346191	1333.298340	1333.298340	100.000000
229.458786	1265.503418	1288.101685	1276.802612	50.000271
229.837234	1238.385498	1326.518799	1317.479492	89.743599
230.215637	1159.291626	1297.140991	1249.684692	65.573799
230.594009	1236.125732	1398.833252	1310.700073	45.833370
230.972351	1231.606079	1394.313599	1260.983765	18.055517
231.350662	1265.503418	1484.706787	1337.817993	32.989719
231.728958	1188.669312	1410.132446	1256.464111	30.612228
232.107193	1242.905151	1387.534180	1294.881226	35.937511
232.485413	1197.708618	1326.518799	1240.645386	33.333366
232.863602	1204.488159	1367.195679	1177.370239	-16.666666
233.241760	1233.865845	1401.093140	1229.346191	-2.702701
233.619873	1163.811279	1249.684692	1231.606079	78.947365
233.997986	1331.038452	1416.911865	1324.259033	-7.894666
234.376038	1346.857300	1441.770020	1346.857300	0.000000
234.754074	1242.905151	1453.069214	1328.778687	40.860237
235.132065	1321.999146	1349.117065	1263.243652	-216.666672
235.510025	1231.606079	1410.132446	1294.881226	35.443027
235.887970	1249.684692	1378.494873	1254.204346	3.508770
236.265869	1260.983765	1439.510132	1285.841919	13.924080
236.643738	1245.165039	1432.730713	1231.606079	-7.228913
237.021576	1229.346191	1373.975220	1285.841919	39.062508
237.399384	1233.865845	1315.219727	1184.149658	-61.111019
237.777161	1265.503418	1419.171753	1310.700073	29.411821
238.154892	1301.660645	1299.400879	1276.802612	1100.026978
238.532623	1220.306885	1385.274292	1233.865845	8.219175
238.910309	1279.062378	1389.793945	1297.140991	16.326521
239.287949	1197.708618	1401.093140	1238.385498	19.999989
239.665573	1215.787231	1401.093140	1297.140991	43.902409
240.043167	1251.944458	1441.770020	1240.645386	-5.952345
240.420715	1290.361572	1498.265747	1256.464111	-16.304367
240.798233	1242.905151	1550.241699	1263.243652	6.617664
241.175735	1312.959839	1527.643433	1263.243652	-23.157888
241.553207	1184.149658	1405.612793	1193.188965	4.081630
241.930634	1222.566772	1493.746094	1260.983765	14.166637
242.308014	1245.165039	1498.265747	1306.180420	24.107155
242.685394	1172.850586	1527.643433	1193.188965	5.732466
243.062729	1272.282959	1622.556274	1326.518799	15.483863
243.440033	1168.330933	1606.737427	1233.865845	14.948436
243.817307	1301.660645	1712.949341	1337.817993	8.791233
244.194534	1163.811279	1746.846802	1294.881226	22.480610
244.571747	1220.306885	1742.327148	1376.234985	29.870125
244.948929	1249.684692	1807.862061	1306.180420	10.121465
245.326065	1188.669312	1733.287720	1256.464111	12.448129
245.703186	1301.660645	1642.894653	1344.597412	12.582792
246.080261	1168.330933	1615.776733	1288.101685	26.767656
246.457306	1206.747925	1660.973267	1260.983765	11.940293
246.834320	1301.660645	1595.438354	1215.787231	-29.230745
247.211304	1258.723999	1719.728760	1249.684692	-1.960784
247.588257	1272.282959	1819.161255	1389.793945	21.487595
247.965195	1279.062378	1918.593628	1335.558105	8.833927
248.342087	1199.968506	2018.026001	1401.093140	24.585636
248.718933	1220.306885	1975.089355	1360.416260	18.562881
249.095764	1195.448853	1977.349121	1342.337646	18.786129
249.472549	1247.424805	2207.851563	1389.793945	14.823529
249.849319	1170.590698	2031.585083	1396.573486	26.246719
250.226044	1218.047119	1999.947388	1405.612793	23.988440
250.602737	1193.188965	1857.578247	1353.636719	24.149660
250.979401	1301.660645	1792.043335	1355.896606	11.059926
251.356033	1317.479492	1886.956055	1378.494873	10.714292
251.732635	1260.983765	1731.027954	1353.636719	19.711542
252.109207	1324.259033	1792.043335	1364.935913	8.695649
252.485748	1333.298340	1794.303101	1369.455566	7.843135
252.862244	1242.905151	1649.674194	1324.259033	20.000017
253.238724	1276.802612	1733.287720	1423.691406	32.178223
253.615158	1267.763306	1758.145874	1292.621338	5.069110
253.991577	1285.841919	1758.145874	1407.872559	25.837311
254.367950	1204.488159	1753.626221	1319.739380	20.987658
254.744308	1394.313599	1884.696289	1473.407593	16.129034
255.120621	1288.101685	1755.886108	1383.014526	20.289867
255.496902	1238.385498	1758.145874	1242.905151	0.869565
255.873154	1211.267578	1674.532227	1281.322266	15.121959
256.249390	1249.684692	1688.091187	1285.841919	8.247420
256.625549	1218.047119	1640.634888	1362.676025	34.224583
257.001709	1358.156372	1789.783447	1401.093140	9.947654
257.377838	1303.920532	1719.728760	1333.298340	7.065230
257.753937	1251.944458	1681.311768	1260.983765	2.105262
258.129974	1170.590698	1726.508301	1281.322266	19.918701
258.506012	1274.542725	1846.279175	1283.582031	1.581027
258.881989	1319.739380	1873.397095	1369.455566	8.979589
259.257935	1240.645386	1905.034668	1464.368286	33.673466
259.633911	1220.306885	1941.191895	1317.479492	13.479627
260.009766	1265.503418	2067.742188	1428.211060	20.281698
260.385651	1358.156372	2323.102783	1529.903320	17.798599
260.761475	1161.551392	2295.984863	1407.872559	21.713144
261.137299	1220.306885	2422.535156	1482.446899	21.804512
261.513062	1179.630005	2576.203369	1450.809326	19.417479
261.888763	1331.038452	2628.179443	1520.864014	14.634151
262.264496	1222.566772	2549.085449	1477.927246	19.250423
262.640137	1227.086426	2329.882324	1383.014526	14.139343
263.015808	1168.330933	2334.401855	1383.014526	18.410852
263.391388	1317.479492	2336.661865	1455.328979	13.525497
263.766998	1315.219727	2239.489258	1563.800659	26.894854
264.142517	1312.959839	2196.552490	1525.383667	24.040922
264.518036	1231.606079	1993.167969	1369.455566	18.100891
264.893524	1251.944458	2058.702881	1376.234985	15.406164
265.268951	1288.101685	2149.095947	1401.093140	13.123369
265.644379	1233.865845	1918.593628	1270.023071	5.280526
266.019745	1193.188965	1945.711548	1331.038452	18.318319
266.395111	1238.385498	1959.270508	1373.975220	18.808786
266.770386	1292.621338	1999.947388	1383.014526	12.779565
267.145691	1233.865845	2038.364502	1333.298340	12.359560
267.520966	1236.125732	2101.639648	1432.730713	22.715405
267.896149	1324.259033	2194.292725	1353.636719	3.376615
268.271362	1240.645386	2214.631104	1378.494873	14.153132
268.646515	1129.913818	2133.277344	1401.093140	27.027025
269.021606	1206.747925	2293.725098	1464.368286	23.700623
269.396729	1209.007813	2203.332031	1439.510132	23.181807
269.771790	1218.047119	2320.843018	1403.352905	16.803270
270.146790	1301.660645	2250.788330	1502.785400	21.190485
270.521790	1401.093140	2286.945557	1536.682739	15.306116
270.896759	1272.282959	2244.008789	1502.785400	23.720934
271.271667	1202.228271	2363.779785	1500.525513	25.680931
271.646545	1199.968506	2384.118164	1392.053833	16.221373
272.021423	1274.542725	2370.559082	1416.911865	12.989691
272.396271	1179.630005	2521.967529	1423.691406	18.181820
272.771027	1215.787231	2562.644531	1471.147827	18.959736
273.145813	1233.865845	2725.352051	1525.383667	19.545460
273.520538	1292.621338	2772.808594	1557.021240	17.862598
273.895233	1206.747925	2756.989746	1520.864014	20.262392
274.269897	1222.566772	2619.140137	1439.510132	15.533976
274.644501	1258.723999	2668.856445	1477.927246	15.544869
275.019135	1249.684692	2603.321289	1536.682739	21.202002
275.393677	1163.811279	2540.046143	1498.265747	24.302135
275.768250	1195.448853	2476.770996	1457.588867	20.458557
276.142700	1224.826538	2472.251465	1425.951172	16.123186
276.517212	1213.527466	2544.565918	1450.809326	17.826822
276.891632	1163.811279	2576.203369	1516.344360	24.960001
277.266022	1292.621338	2646.258057	1448.549561	11.519208
277.640381	1256.464111	2709.533203	1446.289673	13.063767
278.014740	1260.983765	2711.793213	1516.344360	17.601250
278.389038	1213.527466	2707.273438	1532.163086	21.331312
278.763336	1193.188965	2675.635986	1545.722046	23.780485
279.137543	1188.669312	2754.729980	1536.682739	22.222219
279.511780	1240.645386	2621.400146	1541.202393	21.767588
279.885925	1265.503418	2707.273438	1491.486206	15.673983
280.260101	1227.086426	2689.194824	1471.147827	16.692429
280.634186	1195.448853	2775.068359	1527.643433	21.030037
281.008301	1285.841919	2747.950439	1577.359619	19.938171
281.382294	1206.747925	2804.446045	1473.407593	16.690241
281.756348	1267.763306	2942.295654	1496.005859	13.630226
282.130280	1181.889893	3043.987793	1500.525513	17.111647
282.504272	1270.023071	3107.262939	1590.918701	17.466181
282.878143	1229.346191	3247.372314	1599.958008	18.365065
283.252014	1238.385498	3301.608154	1608.997314	17.962765
283.625854	1392.053833	3401.040527	1787.523682	19.685041
283.999664	1263.243652	3321.946533	1597.698120	16.245884
284.373444	1265.503418	3362.623535	1645.154541	18.103451
284.747192	1247.424805	3297.088379	1692.610840	21.719957
285.120941	1294.881226	3416.859375	1785.263794	23.109692
285.494629	1161.551392	3326.466309	1703.910034	25.052191
285.868256	1202.228271	3407.820068	1690.351074	22.131149
286.241882	1324.259033	3642.842041	1798.822754	20.467834
286.615448	1256.464111	3688.038574	1776.224487	21.375465
286.988983	1202.228271	3520.811523	1751.366455	23.684212
287.362518	1344.597412	3848.486328	1823.680908	19.133575
287.736023	1179.630005	3929.840332	1846.279175	24.239933
288.109467	1290.361572	3758.093262	1694.870728	16.391943
288.482880	1317.479492	3782.951416	1762.665527	18.056828
288.856262	1355.896606	3778.431885	1796.562988	18.190298
289.229584	1249.684692	3645.102051	1846.279175	24.905659
289.602936	1240.645386	3819.108643	1762.665527	20.245398
289.976227	1224.826538	3617.984131	1830.460327	25.306890
290.349457	1303.920532	3721.936035	1821.421021	21.401867
290.722687	1247.424805	3593.125977	1767.185181	22.157995
291.095886	1247.424805	3916.281250	1692.610840	16.680779
291.469025	1206.747925	3823.628418	1801.082642	22.711575
291.842133	1224.826538	4078.988770	1850.798828	21.931911
292.215240	1294.881226	4049.611084	1954.750854	23.954058
292.588287	1220.306885	4162.602539	1868.877441	22.043011
292.961304	1222.566772	4076.729004	1789.783447	19.873316
293.334320	1276.802612	4015.713623	1934.412476	24.009901
293.707245	1213.527466	3927.580322	1807.862061	21.898417
294.080170	1202.228271	3999.894775	1900.515015	24.959614
294.453064	1215.787231	4060.910156	1862.097900	22.716440
294.825897	1236.125732	4173.901367	1871.137207	21.615383
295.198730	1184.149658	4230.397461	1907.294556	23.738873
295.571533	1215.787231	4390.845215	1828.200562	19.288256
295.944275	1310.700073	4413.443359	1961.530396	20.975965
296.317017	1247.424805	4711.740723	2042.884155	22.961514
296.689697	1222.566772	4720.779785	1975.089355	21.511629
297.062317	1249.684692	4815.692871	2079.041504	23.257288
297.434967	1274.542725	4973.880371	2155.875488	23.824070
297.807526	1238.385498	4994.219238	2121.978027	23.525869
298.180115	1209.007813	5003.258301	2110.678955	23.764143
298.552612	1199.968506	5107.210449	2103.899414	23.134756
298.925110	1267.763306	5080.092285	2223.670410	25.074097
299.297546	1260.983765	5102.690918	2273.386475	26.352940
299.669983	1206.747925	4958.062012	2131.017334	24.638552
300.042358	1274.542725	4811.172852	2169.434570	25.303518
300.414734	1285.841919	4533.214355	2131.017334	26.026438
300.787048	1288.101685	4650.725098	2099.379883	24.126347
301.159332	1236.125732	4393.104980	1900.515015	21.045095
301.531616	1222.566772	4408.923828	1997.687622	24.326241
301.903809	1249.684692	4368.246582	1986.388428	23.623186
302.276031	1193.188965	4345.648438	2060.962891	27.526886
302.648163	1206.747925	4429.262207	2018.026001	25.175314
303.020294	1195.448853	4381.805664	2015.766235	25.744680
303.392395	1213.527466	4390.845215	1977.349121	24.039825
303.764435	1209.007813	4402.144043	1984.128662	24.274593
304.136444	1279.062378	4234.916992	1927.632935	21.941896
304.508453	1236.125732	4239.436523	2024.805542	26.260345
304.880371	1299.400879	4223.617676	2060.962891	26.043282
305.252319	1222.566772	4185.200684	1963.790161	25.019070
305.624207	1281.322266	4176.161621	1993.167969	24.590162
305.996033	1260.983765	4180.681152	2081.301270	28.095978
306.367859	1132.173584	4049.611084	1936.672241	27.575523
306.739655	1213.527466	4210.059082	1895.995361	22.775261
307.111389	1209.007813	4130.964844	1999.947388	27.068830
307.483124	1190.929199	4142.264160	1920.853516	24.732006
307.854828	1301.660645	4243.956055	1984.128662	23.195087
308.226471	1256.464111	4203.279297	1936.672241	23.082823
308.598083	1326.518799	4365.986816	1925.373169	19.702604
308.969666	1233.865845	4259.774902	2173.954102	31.067961
309.341187	1256.464111	4404.403809	2029.325195	24.551331
309.712738	1236.125732	4585.190430	2004.467041	22.941967
310.084167	1211.267578	4614.567871	2058.702881	24.900398
310.455658	1324.259033	4973.880371	2042.884155	19.690403
310.827057	1238.385498	4919.644531	2180.733643	25.598528
311.198456	1215.787231	4838.291016	2169.434570	26.325640
311.569794	1267.763306	5062.013672	2182.993408	24.121500
311.941132	1233.865845	5041.675293	2268.866943	27.181009
312.312408	1204.488159	4960.321777	2142.316650	24.969917
312.683655	1224.826538	4951.282227	2223.670410	26.804127
313.054840	1279.062378	4761.456543	2282.425781	28.812460
313.426056	1333.298340	4933.203613	2162.655029	23.038292
313.797180	1328.778687	5048.455078	2295.984863	26.002428
314.168304	1260.983765	4689.142090	2151.355957	25.972319
314.539368	1211.267578	4589.709961	2092.600342	26.086956
314.910431	1236.125732	4702.701172	2115.198730	25.358541
315.281433	1274.542725	4790.834473	2176.214111	25.642679
315.652435	1303.920532	5007.777832	2280.166016	26.357534
316.023346	1245.165039	4991.958984	2135.537109	23.763573
316.394287	1238.385498	4964.841309	2151.355957	24.499699
316.765137	1199.968506	4845.070313	2149.095947	26.038435
317.135986	1303.920532	4962.581543	2155.875488	23.285976
317.506775	1224.826538	4686.882324	2060.962891	24.151442
317.877594	1319.739380	4695.921875	2234.969482	27.108431
